Wavelength (nm)	EQE (%)	Current (A)	Dark Current (A) -> 	-299.234780000E-12	
400.000000	28.912368	-6.115267E-7
403.000000	30.738323	-1.477612E-6
406.000000	29.265332	-2.286227E-6
409.000000	29.788518	-3.275988E-6
412.000000	29.061626	-4.895672E-6
415.000000	27.187388	-2.187117E-6
418.000000	29.947150	-2.089056E-6
421.000000	28.516195	-2.338841E-6
424.000000	28.290486	-2.097841E-6
427.000000	27.873156	-2.700985E-6
430.000000	27.455888	-4.244419E-6
433.000000	26.640836	-3.859493E-6
436.000000	26.216085	-3.765191E-6
439.000000	25.955032	-4.089505E-6
442.000000	25.733931	-4.257799E-6
445.000000	25.747554	-4.840213E-6
448.000000	25.472931	-5.436364E-6
451.000000	24.793495	-4.662447E-6
454.000000	25.935450	-4.489762E-6
457.000000	25.630811	-4.953674E-6
460.000000	26.621082	-3.783229E-6
463.000000	25.769617	-6.296834E-6
466.000000	26.953435	-5.187263E-6
469.000000	26.738456	-4.735375E-6
472.000000	26.911058	-4.409738E-6
475.000000	26.724480	-4.153459E-6
478.000000	26.998017	-5.386239E-6
481.000000	28.033035	-4.657020E-6
484.000000	28.048512	-4.493589E-6
487.000000	27.932336	-6.180549E-6
490.000000	28.045284	-5.107409E-6
493.000000	27.546469	-5.100560E-6
496.000000	27.752062	-6.182463E-6
499.000000	28.117951	-6.242847E-6
502.000000	28.256384	-5.699211E-6
505.000000	28.338399	-6.960533E-6
508.000000	27.987948	-8.872233E-6
511.000000	28.400922	-1.035037E-5
514.000000	28.141931	-6.572847E-6
517.000000	29.564645	-6.801547E-6
520.000000	28.504405	-1.128557E-5
523.000000	28.033895	-1.011143E-5
526.000000	29.005842	-6.206716E-6
529.000000	28.961332	-8.203389E-6
532.000000	28.931076	-8.904714E-6
535.000000	29.130938	-4.174228E-6
538.000000	29.841762	-7.470913E-6
541.000000	28.731737	-9.649964E-6
544.000000	28.978350	-4.413808E-6
547.000000	29.389939	-8.325872E-6
550.000000	29.160827	-7.476524E-6
553.000000	29.435995	-5.449112E-6
556.000000	29.437973	-7.392448E-6
559.000000	29.852953	-5.194621E-6
562.000000	29.859679	-6.656377E-6
565.000000	29.854723	-6.234810E-6
568.000000	29.720245	-6.124725E-6
571.000000	29.477779	-7.218905E-6
574.000000	29.497208	-6.675645E-6
577.000000	29.330868	-9.879512E-6
580.000000	29.202124	-6.990349E-6
583.000000	29.310756	-7.441706E-6
586.000000	29.233131	-9.634680E-6
589.000000	29.449361	-6.690309E-6
592.000000	28.302382	-3.699035E-6
595.000000	28.020596	-4.378443E-6
598.000000	28.220441	-3.501370E-6
601.000000	28.445973	-4.823606E-6
604.000000	27.686357	-4.860629E-6
607.000000	28.215283	-5.310284E-6
610.000000	28.525961	-5.477405E-6
613.000000	28.330037	-9.265617E-6
616.000000	26.883929	-1.115357E-5
619.000000	27.455804	-6.540139E-6
622.000000	27.805218	-1.315700E-5
625.000000	26.334748	-1.496560E-5
628.000000	27.069590	-7.982285E-6
631.000000	28.095654	-1.000944E-5
634.000000	27.156333	-1.182369E-5
637.000000	26.658564	-1.488522E-5
640.000000	26.623686	-1.467176E-5
643.000000	26.861821	-1.407326E-5
646.000000	26.776644	-1.672826E-5
649.000000	26.819243	-1.625249E-5
652.000000	26.629738	-2.019310E-5
655.000000	26.565411	-1.852290E-5
658.000000	26.754517	-2.019395E-5
661.000000	26.008547	-2.352923E-5
664.000000	26.530941	-2.121830E-5
667.000000	26.570605	-2.397504E-5
670.000000	26.697509	-2.416289E-5
673.000000	26.552821	-2.511122E-5
676.000000	26.240821	-2.625504E-5
679.000000	26.466581	-2.632236E-5
682.000000	26.463672	-2.679159E-5
685.000000	26.425997	-2.833678E-5
688.000000	26.082756	-2.778040E-5
691.000000	26.133918	-2.814237E-5
694.000000	25.896022	-2.684566E-5
697.000000	25.899372	-2.623266E-5
700.000000	25.390556	-2.830053E-5
703.000000	24.698004	-2.797299E-5
706.000000	24.079290	-2.811200E-5
709.000000	23.353442	-2.635574E-5
712.000000	22.383072	-2.879296E-5
715.000000	21.466744	-2.398436E-5
718.000000	19.984220	-2.115359E-5
721.000000	18.398366	-2.413399E-5
724.000000	16.646409	-1.704106E-5
727.000000	15.010887	-1.733046E-5
730.000000	13.050448	-1.331953E-5
733.000000	11.443190	-1.137834E-5
736.000000	9.711778	-9.767789E-6
739.000000	8.140943	-6.838920E-6
742.000000	6.918189	-6.583460E-6
745.000000	5.661941	-4.389613E-6
748.000000	4.724424	-3.875628E-6
751.000000	3.821497	-3.018632E-6
754.000000	3.092277	-2.129064E-6
757.000000	2.527169	-1.985105E-6
760.000000	2.001345	-1.275476E-6
763.000000	1.641665	-1.143483E-6
766.000000	1.317114	-8.347503E-7
769.000000	1.074333	-6.116044E-7
772.000000	0.869751	-5.486951E-7
775.000000	0.707502	-3.805215E-7
778.000000	0.591874	-3.502141E-7
781.000000	0.491661	-2.759109E-7
784.000000	0.415988	-2.201220E-7
787.000000	0.355139	-2.045369E-7
790.000000	0.304143	-1.593917E-7
793.000000	0.268177	-1.575344E-7
796.000000	0.234059	-1.303933E-7
799.000000	0.208047	-1.163142E-7
802.000000	0.184787	-1.100135E-7
805.000000	0.166599	-9.205120E-8
808.000000	0.151094	-9.212415E-8
811.000000	0.136963	-7.593628E-8
814.000000	0.126409	-7.440765E-8
817.000000	0.116444	-6.852984E-8
820.000000	0.107983	-6.202665E-8
823.000000	0.100717	-6.451853E-8
826.000000	0.093554	-5.395878E-8
829.000000	0.088116	-5.788806E-8
832.000000	0.081820	-5.093210E-8
835.000000	0.077665	-5.250424E-8
838.000000	0.072416	-4.951566E-8
841.000000	0.068499	-4.390386E-8
844.000000	0.064027	-4.481724E-8
847.000000	0.060594	-3.976677E-8
850.000000	0.057413	-4.099315E-8
853.000000	0.054278	-3.620756E-8
856.000000	0.051276	-3.447282E-8
859.000000	0.048432	-3.280027E-8
862.000000	0.045681	-2.827222E-8
865.000000	0.042860	-2.656577E-8
868.000000	0.040438	-2.332466E-8
871.000000	0.038369	-2.160669E-8
874.000000	0.036304	-1.881593E-8
877.000000	0.034144	-1.681916E-8
880.000000	0.032253	-1.563289E-8
883.000000	0.030355	-1.378609E-8
886.000000	0.028727	-1.287162E-8
889.000000	0.026818	-1.153718E-8
892.000000	0.025206	-1.046252E-8
895.000000	0.023683	-9.456110E-9
898.000000	0.022230	-8.812723E-9
901.000000	0.020859	-8.033163E-9
904.000000	0.019641	-7.889184E-9
907.000000	0.018160	-7.145207E-9
910.000000	0.017088	-6.616241E-9
913.000000	0.015825	-6.428808E-9
916.000000	0.014788	-5.684138E-9
919.000000	0.013803	-5.502705E-9
922.000000	0.012792	-5.129727E-9
925.000000	0.011879	-4.531686E-9
928.000000	0.011019	-4.377715E-9
931.000000	0.010220	-3.750875E-9
934.000000	0.009519	-3.701907E-9
937.000000	0.008812	-3.335504E-9
940.000000	0.008174	-2.875354E-9
943.000000	0.007559	-2.706164E-9
946.000000	0.006973	-2.357433E-9
949.000000	0.006398	-2.279723E-9
952.000000	0.005944	-2.009293E-9
955.000000	0.005506	-1.760577E-9
958.000000	0.005126	-1.588775E-9
961.000000	0.004734	-1.407841E-9
964.000000	0.004381	-1.298738E-9
967.000000	0.004065	-1.146041E-9
970.000000	0.003769	-1.045825E-9
973.000000	0.003524	-9.362709E-10
976.000000	0.003304	-8.435631E-10
979.000000	0.003128	-7.374815E-10
982.000000	0.002966	-6.433717E-10
985.000000	0.002790	-5.920287E-10
988.000000	0.002626	-5.449206E-10
991.000000	0.002478	-5.034089E-10
994.000000	0.002404	-4.551988E-10
997.000000	0.002310	-4.234180E-10
1000.000000	0.002167	-3.992395E-10
1003.000000	0.002057	-3.762690E-10
1006.000000	0.001977	-3.515335E-10
1009.000000	0.001928	-3.293670E-10
1012.000000	0.001821	-3.172835E-10
1015.000000	0.001727	-3.059039E-10
1018.000000	0.001656	-2.937797E-10
1021.000000	0.001565	-2.843064E-10
1024.000000	0.001466	-2.756310E-10
1027.000000	0.001339	-2.751794E-10
1030.000000	0.001231	-2.726159E-10
1033.000000	0.001152	-2.666740E-10
1036.000000	0.001025	-2.640343E-10
1039.000000	0.000902	-2.634827E-10
1042.000000	0.000944	-2.468830E-10
1045.000000	0.001052	-2.296904E-10
1048.000000	0.001049	-2.234024E-10
1051.000000	0.001005	-2.188330E-10
1054.000000	0.000887	-2.198419E-10
1057.000000	0.000788	-2.202174E-10
1060.000000	0.000702	-2.219125E-10
1063.000000	0.000591	-2.269747E-10
1066.000000	0.000481	-2.405421E-10
1069.000000	0.000295	-3.152128E-10
1072.000000	0.000196	-4.275356E-10
1075.000000	0.000355	-2.303767E-10
1078.000000	0.000460	-2.083275E-10
1081.000000	0.000538	-1.983851E-10
1084.000000	0.000556	-1.912172E-10
1087.000000	0.000599	-1.872284E-10
1090.000000	0.000604	-1.838909E-10
1093.000000	0.000622	-1.813099E-10
1096.000000	0.000619	-1.780662E-10
1099.000000	0.000572	-1.770219E-10
