Wavelength (nm)	EQE (%)	Current (A)	Dark Current (A) -> 	-92.464068000E-12	
400.000000	20.537977	-4.343996E-7
403.000000	22.125609	-1.063593E-6
406.000000	21.250487	-1.660102E-6
409.000000	21.951490	-2.414112E-6
412.000000	21.784472	-3.669775E-6
415.000000	20.736615	-1.668178E-6
418.000000	22.886822	-1.596541E-6
421.000000	22.112527	-1.813625E-6
424.000000	22.080442	-1.637344E-6
427.000000	21.874894	-2.119737E-6
430.000000	21.632981	-3.344253E-6
433.000000	21.215711	-3.073548E-6
436.000000	21.147085	-3.037174E-6
439.000000	21.047674	-3.316296E-6
442.000000	20.995751	-3.473845E-6
445.000000	21.107506	-3.967943E-6
448.000000	21.067829	-4.496239E-6
451.000000	20.379693	-3.832426E-6
454.000000	21.601037	-3.739419E-6
457.000000	21.582133	-4.171185E-6
460.000000	22.993305	-3.267671E-6
463.000000	22.326887	-5.455599E-6
466.000000	23.379852	-4.499517E-6
469.000000	23.585087	-4.176914E-6
472.000000	24.111537	-3.950999E-6
475.000000	23.775525	-3.695139E-6
478.000000	24.089523	-4.805980E-6
481.000000	25.418751	-4.222719E-6
484.000000	25.405319	-4.070129E-6
487.000000	25.112962	-5.556710E-6
490.000000	25.845544	-4.706808E-6
493.000000	25.931332	-4.801498E-6
496.000000	25.988663	-5.789622E-6
499.000000	26.333519	-5.846661E-6
502.000000	26.788441	-5.403132E-6
505.000000	26.795390	-6.581536E-6
508.000000	26.614950	-8.436990E-6
511.000000	26.503078	-9.658724E-6
514.000000	26.522775	-6.194676E-6
517.000000	27.180364	-6.253027E-6
520.000000	27.042229	-1.070666E-5
523.000000	26.788016	-9.662059E-6
526.000000	27.685593	-5.924207E-6
529.000000	27.780328	-7.868866E-6
532.000000	27.345891	-8.416809E-6
535.000000	26.981584	-3.866243E-6
538.000000	27.927318	-6.991630E-6
541.000000	27.297021	-9.168094E-6
544.000000	27.425295	-4.177256E-6
547.000000	27.630000	-7.827299E-6
550.000000	27.407634	-7.027024E-6
553.000000	27.645487	-5.117658E-6
556.000000	27.778057	-6.975611E-6
559.000000	28.043588	-4.879779E-6
562.000000	27.572058	-6.146416E-6
565.000000	27.648351	-5.774035E-6
568.000000	27.495872	-5.666328E-6
571.000000	27.338952	-6.695121E-6
574.000000	27.369214	-6.194049E-6
577.000000	27.730155	-9.340344E-6
580.000000	27.069916	-6.479945E-6
583.000000	27.002709	-6.855716E-6
586.000000	27.358328	-9.016781E-6
589.000000	27.337544	-6.210546E-6
592.000000	26.588838	-3.475080E-6
595.000000	26.333681	-4.114849E-6
598.000000	26.315557	-3.265027E-6
601.000000	26.275263	-4.455517E-6
604.000000	26.071238	-4.577078E-6
607.000000	26.099208	-4.912026E-6
610.000000	26.368549	-5.063150E-6
613.000000	25.846843	-8.453464E-6
616.000000	24.740893	-1.026447E-5
619.000000	25.009783	-5.957482E-6
622.000000	25.921048	-1.226544E-5
625.000000	23.807136	-1.352920E-5
628.000000	24.619194	-7.259712E-6
631.000000	24.973878	-8.897267E-6
634.000000	24.727219	-1.076607E-5
637.000000	24.399560	-1.362387E-5
640.000000	24.242140	-1.335934E-5
643.000000	24.653859	-1.291648E-5
646.000000	25.014132	-1.562716E-5
649.000000	24.932646	-1.510921E-5
652.000000	24.888006	-1.887236E-5
655.000000	24.837323	-1.731798E-5
658.000000	25.158715	-1.898946E-5
661.000000	24.515477	-2.217849E-5
664.000000	24.759027	-1.980120E-5
667.000000	24.579614	-2.217854E-5
670.000000	24.585730	-2.225160E-5
673.000000	24.851292	-2.350207E-5
676.000000	24.216368	-2.422949E-5
679.000000	24.337016	-2.420440E-5
682.000000	24.024023	-2.432171E-5
685.000000	23.775412	-2.549454E-5
688.000000	23.407604	-2.493113E-5
691.000000	23.120394	-2.489725E-5
694.000000	22.604833	-2.343378E-5
697.000000	22.278152	-2.256484E-5
700.000000	21.555972	-2.402647E-5
703.000000	20.625352	-2.336030E-5
706.000000	19.834715	-2.315656E-5
709.000000	19.009948	-2.145385E-5
712.000000	17.990004	-2.314184E-5
715.000000	16.940295	-1.892705E-5
718.000000	15.803069	-1.672778E-5
721.000000	14.431685	-1.893071E-5
724.000000	13.014396	-1.332294E-5
727.000000	11.788578	-1.361022E-5
730.000000	10.305632	-1.051812E-5
733.000000	9.110311	-9.058682E-6
736.000000	7.807377	-7.852405E-6
739.000000	6.642480	-5.580114E-6
742.000000	5.724902	-5.447909E-6
745.000000	4.746736	-3.680069E-6
748.000000	4.025470	-3.302249E-6
751.000000	3.309952	-2.614559E-6
754.000000	2.733993	-1.882382E-6
757.000000	2.259238	-1.774644E-6
760.000000	1.843952	-1.175168E-6
763.000000	1.539208	-1.072118E-6
766.000000	1.266371	-8.025906E-7
769.000000	1.056916	-6.016888E-7
772.000000	0.879637	-5.549318E-7
775.000000	0.738188	-3.970252E-7
778.000000	0.636066	-3.763625E-7
781.000000	0.544534	-3.055823E-7
784.000000	0.477442	-2.526407E-7
787.000000	0.419869	-2.418172E-7
790.000000	0.368264	-1.929959E-7
793.000000	0.333711	-1.960308E-7
796.000000	0.299511	-1.668566E-7
799.000000	0.273035	-1.526480E-7
802.000000	0.248149	-1.477364E-7
805.000000	0.227749	-1.258383E-7
808.000000	0.210573	-1.283892E-7
811.000000	0.193476	-1.072691E-7
814.000000	0.182203	-1.072497E-7
817.000000	0.167686	-9.868671E-8
820.000000	0.157399	-9.041219E-8
823.000000	0.148717	-9.526728E-8
826.000000	0.138691	-7.999194E-8
829.000000	0.132255	-8.688558E-8
832.000000	0.122833	-7.646221E-8
835.000000	0.117314	-7.930882E-8
838.000000	0.110065	-7.525808E-8
841.000000	0.104612	-6.704970E-8
844.000000	0.098364	-6.885145E-8
847.000000	0.092983	-6.102285E-8
850.000000	0.088321	-6.306149E-8
853.000000	0.083755	-5.587148E-8
856.000000	0.078941	-5.307255E-8
859.000000	0.074622	-5.053726E-8
862.000000	0.070280	-4.349683E-8
865.000000	0.066154	-4.100361E-8
868.000000	0.062524	-3.606458E-8
871.000000	0.059176	-3.332332E-8
874.000000	0.055806	-2.892320E-8
877.000000	0.051842	-2.553753E-8
880.000000	0.048945	-2.372393E-8
883.000000	0.046107	-2.094002E-8
886.000000	0.043496	-1.948881E-8
889.000000	0.040683	-1.750221E-8
892.000000	0.038272	-1.588560E-8
895.000000	0.035809	-1.429790E-8
898.000000	0.033530	-1.329219E-8
901.000000	0.031375	-1.208296E-8
904.000000	0.029348	-1.178832E-8
907.000000	0.027142	-1.067946E-8
910.000000	0.025439	-9.849471E-9
913.000000	0.023680	-9.619870E-9
916.000000	0.021917	-8.424399E-9
919.000000	0.020390	-8.128570E-9
922.000000	0.018765	-7.525001E-9
925.000000	0.017376	-6.628706E-9
928.000000	0.016168	-6.423255E-9
931.000000	0.014829	-5.442236E-9
934.000000	0.013739	-5.342975E-9
937.000000	0.012595	-4.767377E-9
940.000000	0.011570	-4.070082E-9
943.000000	0.010649	-3.812147E-9
946.000000	0.009656	-3.264585E-9
949.000000	0.008862	-3.157859E-9
952.000000	0.008094	-2.736412E-9
955.000000	0.007448	-2.381804E-9
958.000000	0.006854	-2.124386E-9
961.000000	0.006212	-1.847419E-9
964.000000	0.005670	-1.681050E-9
967.000000	0.005168	-1.457054E-9
970.000000	0.004710	-1.307060E-9
973.000000	0.004322	-1.148275E-9
976.000000	0.003960	-1.010871E-9
979.000000	0.003653	-8.612482E-10
982.000000	0.003363	-7.293744E-10
985.000000	0.003071	-6.514894E-10
988.000000	0.002819	-5.847842E-10
991.000000	0.002567	-5.216106E-10
994.000000	0.002404	-4.553629E-10
997.000000	0.002245	-4.114635E-10
1000.000000	0.002051	-3.778118E-10
1003.000000	0.001897	-3.468527E-10
1006.000000	0.001760	-3.129253E-10
1009.000000	0.001645	-2.809277E-10
1012.000000	0.001533	-2.671549E-10
1015.000000	0.001403	-2.485019E-10
1018.000000	0.001309	-2.321600E-10
1021.000000	0.001190	-2.162052E-10
1024.000000	0.001111	-2.088671E-10
1027.000000	0.001005	-2.066440E-10
1030.000000	0.000911	-2.018459E-10
1033.000000	0.000830	-1.920266E-10
1036.000000	0.000745	-1.920439E-10
1039.000000	0.000633	-1.849408E-10
1042.000000	0.000647	-1.691913E-10
1045.000000	0.000680	-1.484970E-10
1048.000000	0.000634	-1.350528E-10
1051.000000	0.000606	-1.320436E-10
1054.000000	0.000538	-1.333048E-10
1057.000000	0.000486	-1.358095E-10
1060.000000	0.000435	-1.376982E-10
1063.000000	0.000368	-1.412646E-10
1066.000000	0.000314	-1.571724E-10
1069.000000	0.000226	-2.410113E-10
1072.000000	0.000166	-3.617281E-10
1075.000000	0.000225	-1.456052E-10
1078.000000	0.000266	-1.203356E-10
1081.000000	0.000296	-1.091848E-10
1084.000000	0.000286	-9.825707E-11
1087.000000	0.000307	-9.585206E-11
1090.000000	0.000305	-9.293095E-11
1093.000000	0.000316	-9.225640E-11
1096.000000	0.000286	-8.236092E-11
1099.000000	0.000288	-8.904773E-11
