Voltage (V)	Current (A)	Current Density (A/m^2)	 Dividing Wavelength (nm) = 480  Light Power Density (W/m^2) = 1094.384842  Total Light Power Density (W/m^2) = 1094.384842	
-0.199865	-9.591843E-5	-11.989804
-0.189778	-9.618382E-5	-12.022978
-0.179732	-9.528000E-5	-11.910000
-0.169624	-9.528698E-5	-11.910872
-0.159508	-9.464755E-5	-11.830944
-0.149464	-9.386956E-5	-11.733695
-0.139350	-9.388009E-5	-11.735011
-0.129284	-9.409987E-5	-11.762484
-0.119225	-9.319836E-5	-11.649795
-0.109115	-9.338705E-5	-11.673381
-0.099003	-9.219356E-5	-11.524195
-0.088971	-9.144683E-5	-11.430854
-0.078852	-9.196852E-5	-11.496065
-0.068772	-9.152968E-5	-11.441210
-0.058663	-9.136915E-5	-11.421144
-0.048610	-9.050897E-5	-11.313621
-0.038502	-9.068344E-5	-11.335430
-0.028398	-9.023419E-5	-11.279274
-0.018348	-8.955260E-5	-11.194075
-0.008265	-8.889843E-5	-11.112304
0.001814	-8.924850E-5	-11.156063
0.011858	-8.847421E-5	-11.059276
0.021934	-8.727640E-5	-10.909550
0.032047	-8.762165E-5	-10.952706
0.042086	-8.751680E-5	-10.939600
0.052209	-8.697505E-5	-10.871881
0.062293	-8.694764E-5	-10.868455
0.072369	-8.591235E-5	-10.739044
0.082445	-8.534660E-5	-10.668325
0.092558	-8.464719E-5	-10.580899
0.102609	-8.460866E-5	-10.576083
0.112717	-8.455867E-5	-10.569834
0.122795	-8.434783E-5	-10.543479
0.132840	-8.323040E-5	-10.403800
0.142954	-8.272783E-5	-10.340979
0.153070	-8.244719E-5	-10.305899
0.163152	-8.259567E-5	-10.324459
0.173200	-8.111296E-5	-10.139120
0.183311	-8.103234E-5	-10.129043
0.193423	-8.071452E-5	-10.089315
0.203473	-8.073332E-5	-10.091665
0.213550	-7.988192E-5	-9.985240
0.223658	-7.913289E-5	-9.891611
0.233708	-7.854158E-5	-9.817698
0.243815	-7.778222E-5	-9.722777
0.253896	-7.778141E-5	-9.722676
0.263971	-7.666426E-5	-9.583032
0.274055	-7.602671E-5	-9.503339
0.284168	-7.486760E-5	-9.358450
0.294215	-7.514160E-5	-9.392700
0.304324	-7.404438E-5	-9.255548
0.314402	-7.326058E-5	-9.157573
0.324455	-7.308640E-5	-9.135800
0.334566	-7.168503E-5	-8.960629
0.344675	-7.038379E-5	-8.797974
0.354717	-6.946357E-5	-8.682946
0.364793	-6.830452E-5	-8.538065
0.374906	-6.764690E-5	-8.455863
0.384953	-6.544902E-5	-8.181128
0.395068	-6.429585E-5	-8.036981
0.405150	-6.298167E-5	-7.872709
0.415252	-6.123236E-5	-7.654045
0.425300	-5.894826E-5	-7.368533
0.435422	-5.647445E-5	-7.059306
0.445500	-5.491205E-5	-6.864006
0.455575	-5.300710E-5	-6.625888
0.465655	-4.951941E-5	-6.189926
0.475767	-4.645426E-5	-5.806782
0.485811	-4.308108E-5	-5.385135
0.495931	-3.902116E-5	-4.877645
0.506007	-3.464478E-5	-4.330598
0.516053	-2.951885E-5	-3.689856
0.526162	-2.362528E-5	-2.953160
0.536270	-1.758380E-5	-2.197975
0.546317	-1.076978E-5	-1.346223
0.556391	-2.700276E-6	-0.337535
0.566488	6.479975E-6	0.809997
0.576532	1.610497E-5	2.013121
0.586641	2.717825E-5	3.397281
0.596717	3.926374E-5	4.907967
0.606805	5.319969E-5	6.649961
0.616885	6.874889E-5	8.593611
0.626982	8.584575E-5	10.730719
0.636540	0.000104	13.016913
0.647157	0.000127	15.837100
0.657236	0.000151	18.890712
0.667354	0.000179	22.320675
0.677395	0.000209	26.112562
0.687503	0.000243	30.434950
0.697584	0.000282	35.277712
0.707638	0.000326	40.740838
0.717745	0.000376	46.952112
0.727860	0.000432	53.998350
0.737904	0.000496	61.975963
0.747978	0.000569	71.095075
0.758089	0.000652	81.528888
0.768136	0.000747	93.329775
0.778251	0.000855	106.914775
0.788357	0.000979	122.321700
0.798452	0.001117	139.636000
0.808510	0.001274	159.304625
0.818631	0.001452	181.450125
0.828683	0.001648	205.971250
0.838793	0.001865	233.174250
0.848878	0.002103	262.890250
0.858929	0.002360	295.002250
0.869038	0.002640	329.975500
0.879154	0.002939	367.318500
0.889235	0.003255	406.844875
0.899277	0.003587	448.424750
0.909392	0.003939	492.326750
0.919496	0.004305	538.112250
0.929540	0.004684	585.505375
0.939654	0.005078	634.786750
0.949728	0.005484	685.495750
0.959782	0.005900	737.455500
0.969885	0.006328	791.000125
0.980000	0.006768	845.939250
0.990045	0.007212	901.523625
1.000122	0.007667	958.363750
