Voltage (V)	Current (A)	Current Density (A/m^2)	 Dividing Wavelength (nm) = 480  Light Power Density (W/m^2) = 1094.384842  Total Light Power Density (W/m^2) = 1094.384842	
-0.199925	-0.000149	-18.585213
-0.189843	-0.000149	-18.647612
-0.179792	-0.000148	-18.549713
-0.169678	-0.000147	-18.415688
-0.159566	-0.000148	-18.494650
-0.149521	-0.000149	-18.646088
-0.139410	-0.000147	-18.370600
-0.129331	-0.000148	-18.474163
-0.119284	-0.000146	-18.304263
-0.109169	-0.000147	-18.386413
-0.099061	-0.000147	-18.314200
-0.089016	-0.000145	-18.140875
-0.078911	-0.000145	-18.121438
-0.068825	-0.000145	-18.113550
-0.058714	-0.000144	-17.990725
-0.048664	-0.000144	-18.005238
-0.038559	-0.000144	-17.940887
-0.028451	-0.000144	-17.954188
-0.018397	-0.000143	-17.919525
-0.008325	-0.000143	-17.870450
0.001759	-0.000143	-17.817450
0.011807	-0.000142	-17.743713
0.021882	-0.000142	-17.792300
0.031995	-0.000142	-17.706750
0.042038	-0.000142	-17.691375
0.052159	-0.000142	-17.706537
0.062245	-0.000141	-17.658988
0.072314	-0.000142	-17.708075
0.082397	-0.000140	-17.442738
0.092508	-0.000140	-17.467863
0.102558	-0.000139	-17.355550
0.112667	-0.000139	-17.337512
0.122747	-0.000137	-17.141638
0.132790	-0.000139	-17.317538
0.142904	-0.000138	-17.278063
0.153015	-0.000138	-17.219387
0.163097	-0.000137	-17.136163
0.173143	-0.000137	-17.138613
0.183258	-0.000137	-17.078762
0.193369	-0.000135	-16.929100
0.203415	-0.000136	-16.987875
0.213501	-0.000135	-16.897913
0.223611	-0.000134	-16.809313
0.233656	-0.000134	-16.749737
0.243762	-0.000134	-16.800487
0.253845	-0.000132	-16.549163
0.263917	-0.000133	-16.640975
0.274003	-0.000132	-16.479413
0.284113	-0.000132	-16.443288
0.294161	-0.000130	-16.258087
0.304272	-0.000130	-16.241600
0.314346	-0.000130	-16.204438
0.324404	-0.000129	-16.151587
0.334512	-0.000128	-15.994862
0.344626	-0.000127	-15.830888
0.354668	-0.000126	-15.766913
0.364748	-0.000125	-15.569850
0.374858	-0.000124	-15.450050
0.384906	-0.000122	-15.238213
0.395017	-0.000121	-15.136338
0.405099	-0.000120	-14.981925
0.415201	-0.000118	-14.734638
0.425259	-0.000117	-14.623100
0.435372	-0.000114	-14.308513
0.445447	-0.000112	-14.044100
0.455534	-0.000109	-13.682087
0.465607	-0.000106	-13.259100
0.475722	-0.000104	-12.982062
0.485762	-0.000101	-12.577075
0.495899	-9.673884E-5	-12.092355
0.505974	-9.262669E-5	-11.578336
0.516023	-8.842939E-5	-11.053674
0.526130	-8.301203E-5	-10.376504
0.536238	-7.723249E-5	-9.654061
0.546282	-7.035599E-5	-8.794499
0.556359	-6.480677E-5	-8.100846
0.566469	-5.782509E-5	-7.228136
0.576516	-4.937492E-5	-6.171865
0.586622	-4.041113E-5	-5.051391
0.596700	-3.104074E-5	-3.880092
0.606789	-2.144164E-5	-2.680205
0.617285	-9.692318E-6	-1.211540
0.626966	2.163083E-6	0.270385
0.637010	1.485919E-5	1.857399
0.647118	2.852694E-5	3.565867
0.657195	4.399620E-5	5.499525
0.667302	6.036991E-5	7.546239
0.677349	7.851427E-5	9.814284
0.687453	9.826972E-5	12.283715
0.697549	0.000120	14.994637
0.707597	0.000144	18.044013
0.717713	0.000172	21.545950
0.727830	0.000204	25.514925
0.737876	0.000240	30.023538
0.747950	0.000282	35.254337
0.758068	0.000331	41.410413
0.768112	0.000388	48.542875
0.778225	0.000455	56.862888
0.788340	0.000533	66.630088
0.798391	0.000623	77.854538
0.808455	0.000726	90.703438
0.818567	0.000844	105.519550
0.828619	0.000976	121.972738
0.838762	0.001126	140.693500
0.848845	0.001289	161.149250
0.858886	0.001468	183.450125
0.869008	0.001662	207.806500
0.879126	0.001872	234.025125
0.889209	0.002095	261.905750
0.899250	0.002331	291.325125
0.909370	0.002579	322.415000
0.919471	0.002839	354.854250
0.929521	0.003108	388.538875
0.939633	0.003389	423.595125
0.949709	0.003678	459.797875
0.959760	0.003974	496.783625
0.969860	0.004282	535.246250
0.979979	0.004598	574.702000
0.990018	0.004917	614.652500
1.000098	0.005244	655.535000
