Wavelength (nm)	EQE (%)	Current (A)	Dark Current (A) -> 	-7.156058000E-12	
400.000000	41.189107	-8.915370E-7
401.000000	43.327290	-1.297925E-6
402.000000	42.701525	-1.943392E-6
403.000000	43.133799	-2.918392E-6
404.000000	43.211305	-3.926179E-6
405.000000	43.054200	-5.226235E-6
406.000000	43.407683	-7.228705E-6
407.000000	43.048447	-7.791846E-6
408.000000	42.838857	-8.432724E-6
409.000000	42.645268	-9.384558E-6
410.000000	43.107704	-9.514801E-6
411.000000	42.906679	-1.257338E-5
412.000000	42.524079	-1.449997E-5
413.000000	42.737551	-1.891967E-5
414.000000	42.489187	-2.190623E-5
415.000000	42.780908	-2.200304E-5
416.000000	42.663614	-2.094233E-5
417.000000	42.275029	-1.856781E-5
418.000000	41.915917	-1.252443E-5
419.000000	42.455086	-9.247482E-6
420.000000	43.003817	-9.548466E-6
421.000000	42.675241	-1.033017E-5
422.000000	42.310885	-9.277583E-6
423.000000	42.765968	-9.750588E-6
424.000000	42.741411	-1.087288E-5
425.000000	42.599447	-1.170060E-5
426.000000	42.446283	-1.239171E-5
427.000000	42.915714	-1.303771E-5
428.000000	43.204106	-1.443039E-5
429.000000	43.357546	-1.615832E-5
430.000000	43.067518	-1.741614E-5
431.000000	43.165086	-1.777318E-5
432.000000	43.195216	-1.758152E-5
433.000000	43.565107	-1.802463E-5
434.000000	43.136036	-1.999591E-5
435.000000	43.278165	-2.048341E-5
436.000000	43.468457	-2.071546E-5
437.000000	43.924310	-2.256729E-5
438.000000	43.598809	-2.332886E-5
439.000000	43.360549	-2.281144E-5
440.000000	43.828926	-2.285916E-5
441.000000	44.583680	-2.552850E-5
442.000000	44.224771	-2.472490E-5
443.000000	44.388804	-2.374753E-5
444.000000	44.412876	-2.344117E-5
445.000000	44.576234	-2.339113E-5
446.000000	45.048158	-2.298716E-5
447.000000	45.045518	-2.569690E-5
448.000000	45.344159	-2.919140E-5
449.000000	44.656274	-2.679093E-5
450.000000	45.177779	-2.509008E-5
451.000000	45.688461	-2.779678E-5
452.000000	45.433658	-2.915458E-5
453.000000	45.524194	-2.706316E-5
454.000000	45.737691	-2.382756E-5
455.000000	46.053829	-2.521424E-5
456.000000	46.384764	-2.977705E-5
457.000000	46.862389	-3.326889E-5
458.000000	46.838392	-3.390358E-5
459.000000	46.086186	-3.155415E-5
460.000000	46.422687	-2.963243E-5
461.000000	47.056744	-2.820735E-5
462.000000	46.853799	-2.742212E-5
463.000000	46.532523	-2.736261E-5
464.000000	46.421495	-2.722932E-5
465.000000	47.132599	-2.793682E-5
466.000000	46.739084	-2.596664E-5
467.000000	46.721390	-2.105198E-5
468.000000	47.652060	-2.086157E-5
469.000000	48.286481	-2.738162E-5
470.000000	47.101931	-2.838330E-5
471.000000	45.996648	-2.117721E-5
472.000000	47.658454	-2.033139E-5
473.000000	48.173171	-2.826534E-5
474.000000	47.232001	-2.885359E-5
475.000000	46.197230	-2.185544E-5
476.000000	46.614622	-2.049129E-5
477.000000	47.133753	-2.446755E-5
478.000000	47.136601	-2.298100E-5
479.000000	47.572128	-2.242693E-5
480.000000	47.608025	-2.674083E-5
481.000000	47.064865	-2.614216E-5
482.000000	46.017605	-1.860441E-5
483.000000	48.135057	-1.980280E-5
484.000000	47.542920	-2.491339E-5
485.000000	45.705351	-2.027269E-5
486.000000	47.399026	-1.860478E-5
487.000000	47.547377	-2.220884E-5
488.000000	46.622549	-2.171326E-5
489.000000	46.734288	-1.844768E-5
490.000000	47.231335	-2.072488E-5
491.000000	46.662312	-2.270893E-5
492.000000	47.039912	-2.525435E-5
493.000000	46.248650	-2.643141E-5
494.000000	46.283654	-2.410302E-5
495.000000	45.923367	-2.319121E-5
496.000000	46.020263	-2.664563E-5
497.000000	45.677438	-2.835891E-5
498.000000	45.824573	-2.614337E-5
499.000000	45.713328	-2.520661E-5
500.000000	46.606856	-2.857436E-5
501.000000	45.918465	-3.377248E-5
502.000000	45.015831	-3.173057E-5
503.000000	45.210634	-2.951726E-5
504.000000	44.032555	-3.472959E-5
505.000000	44.990881	-3.941544E-5
506.000000	44.106613	-3.582590E-5
507.000000	43.670172	-2.846833E-5
508.000000	44.933395	-2.865558E-5
509.000000	44.098182	-2.880834E-5
510.000000	43.252375	-2.471672E-5
511.000000	44.014157	-2.233978E-5
512.000000	44.895603	-2.538908E-5
513.000000	45.173620	-2.917069E-5
514.000000	43.885813	-3.504001E-5
515.000000	45.542223	-4.161171E-5
516.000000	44.938816	-5.229831E-5
517.000000	44.256385	-6.178531E-5
518.000000	43.518847	-5.241819E-5
519.000000	44.066403	-4.322205E-5
520.000000	43.883160	-4.083373E-5
521.000000	42.801589	-3.059522E-5
522.000000	42.159799	-2.377793E-5
523.000000	43.261596	-2.230177E-5
524.000000	45.084878	-3.049338E-5
525.000000	44.896616	-4.252328E-5
526.000000	43.810727	-4.624882E-5
527.000000	44.436487	-5.073446E-5
528.000000	43.914887	-5.693666E-5
529.000000	43.729150	-5.429306E-5
530.000000	43.433238	-4.068423E-5
531.000000	42.907875	-3.021855E-5
532.000000	43.652045	-2.443278E-5
533.000000	43.941060	-2.597824E-5
534.000000	43.968882	-2.821446E-5
535.000000	45.066904	-3.628144E-5
536.000000	45.033829	-5.237630E-5
537.000000	43.823905	-5.137955E-5
538.000000	43.527954	-3.822281E-5
539.000000	44.420566	-3.836818E-5
540.000000	43.312276	-3.104081E-5
541.000000	43.850192	-2.737525E-5
542.000000	44.207314	-2.873394E-5
543.000000	44.859808	-3.410031E-5
544.000000	44.978638	-4.683908E-5
545.000000	44.677313	-5.033159E-5
546.000000	44.511499	-4.482455E-5
547.000000	45.325558	-4.554199E-5
548.000000	44.850978	-3.630511E-5
549.000000	44.793851	-2.641355E-5
550.000000	45.598099	-2.658906E-5
551.000000	46.022221	-2.961661E-5
552.000000	46.695333	-4.009207E-5
553.000000	45.761142	-4.867772E-5
554.000000	45.252386	-4.990485E-5
555.000000	45.624860	-5.103832E-5
556.000000	45.235938	-4.451235E-5
557.000000	45.348485	-3.500016E-5
558.000000	46.023615	-3.350885E-5
559.000000	46.463886	-3.737931E-5
560.000000	47.574059	-4.589362E-5
561.000000	46.339820	-5.347283E-5
562.000000	46.841880	-4.869757E-5
563.000000	46.941341	-4.817363E-5
564.000000	46.729398	-4.087891E-5
565.000000	46.270435	-3.141657E-5
566.000000	46.781735	-3.153669E-5
567.000000	47.597037	-3.415050E-5
568.000000	47.993809	-4.150138E-5
569.000000	47.641293	-4.766642E-5
570.000000	47.435833	-4.492559E-5
571.000000	47.831754	-4.226836E-5
572.000000	47.854918	-3.832871E-5
573.000000	47.864677	-3.126683E-5
574.000000	48.740601	-3.215855E-5
575.000000	49.029744	-3.771497E-5
576.000000	49.413016	-4.876616E-5
577.000000	48.792522	-5.374111E-5
578.000000	48.726363	-5.645136E-5
579.000000	48.327727	-5.214295E-5
580.000000	49.108608	-4.342792E-5
581.000000	48.716882	-3.870441E-5
582.000000	49.022125	-3.705614E-5
583.000000	49.716720	-4.164761E-5
584.000000	50.139103	-5.041171E-5
585.000000	49.749551	-5.320820E-5
586.000000	49.970844	-5.113917E-5
587.000000	49.836695	-4.812511E-5
588.000000	49.722043	-4.026574E-5
589.000000	49.782519	-3.851027E-5
590.000000	50.092126	-4.018167E-5
591.000000	51.050184	-5.873094E-5
592.000000	51.614453	-5.985851E-5
593.000000	51.852724	-5.988219E-5
594.000000	51.787177	-5.727821E-5
595.000000	52.146434	-5.629883E-5
596.000000	52.585160	-5.731844E-5
597.000000	52.435262	-5.903692E-5
598.000000	52.456711	-6.446049E-5
599.000000	52.608484	-6.899759E-5
600.000000	52.937655	-7.232316E-5
601.000000	52.918000	-7.496535E-5
602.000000	52.959034	-7.449961E-5
603.000000	53.282628	-7.319144E-5
604.000000	52.969856	-6.833553E-5
605.000000	53.286987	-6.551901E-5
606.000000	53.752478	-6.682693E-5
607.000000	54.275426	-6.845203E-5
608.000000	54.011223	-7.454893E-5
609.000000	54.556223	-8.132662E-5
610.000000	54.713011	-8.545211E-5
611.000000	54.659847	-8.817425E-5
612.000000	55.018807	-8.747304E-5
613.000000	55.448020	-8.455777E-5
614.000000	55.351339	-7.865622E-5
615.000000	55.430507	-7.456933E-5
616.000000	55.987728	-7.554859E-5
617.000000	55.828609	-7.920546E-5
618.000000	56.196351	-8.729533E-5
619.000000	56.528723	-9.357819E-5
620.000000	56.919106	-9.687352E-5
621.000000	57.451918	-0.000100
622.000000	56.349783	-0.000100
623.000000	56.724570	-0.000103
624.000000	57.716020	-0.000108
625.000000	57.428778	-0.000114
626.000000	57.389354	-0.000107
627.000000	55.897727	-0.000105
628.000000	55.735433	-0.000104
629.000000	56.701232	-0.000106
630.000000	56.768228	-0.000107
631.000000	56.938176	-0.000112
632.000000	57.191897	-0.000118
633.000000	57.100981	-0.000122
634.000000	57.360180	-0.000125
635.000000	56.830357	-0.000124
636.000000	57.055585	-0.000122
637.000000	57.011094	-0.000122
638.000000	56.884070	-0.000122
639.000000	57.081803	-0.000123
640.000000	56.935471	-0.000121
641.000000	57.091828	-0.000119
642.000000	57.109411	-0.000119
643.000000	56.959878	-0.000119
644.000000	56.952353	-0.000125
645.000000	56.865332	-0.000131
646.000000	56.985116	-0.000135
647.000000	57.106650	-0.000136
648.000000	56.988757	-0.000129
649.000000	57.210634	-0.000125
650.000000	56.981108	-0.000122
651.000000	56.866233	-0.000124
652.000000	56.925644	-0.000131
653.000000	57.012064	-0.000136
654.000000	56.881948	-0.000139
655.000000	56.930552	-0.000134
656.000000	56.710172	-0.000127
657.000000	56.625467	-0.000125
658.000000	56.910304	-0.000123
659.000000	57.120072	-0.000130
660.000000	56.881501	-0.000141
661.000000	57.214751	-0.000147
662.000000	56.879199	-0.000149
663.000000	57.083398	-0.000141
664.000000	57.006637	-0.000126
665.000000	56.948863	-0.000120
666.000000	56.736438	-0.000123
667.000000	57.203283	-0.000134
668.000000	57.286772	-0.000145
669.000000	57.167372	-0.000152
670.000000	57.052289	-0.000148
671.000000	56.928764	-0.000136
672.000000	56.877496	-0.000132
673.000000	57.137612	-0.000130
674.000000	57.024960	-0.000131
675.000000	57.263821	-0.000143
676.000000	57.055336	-0.000148
677.000000	57.485698	-0.000148
678.000000	57.526345	-0.000148
679.000000	57.392967	-0.000137
680.000000	57.492031	-0.000130
681.000000	57.774026	-0.000136
682.000000	57.880982	-0.000146
683.000000	57.536012	-0.000151
684.000000	57.850595	-0.000154
685.000000	57.907114	-0.000151
686.000000	57.688839	-0.000136
687.000000	58.112160	-0.000132
688.000000	58.345063	-0.000143
689.000000	58.099944	-0.000147
690.000000	58.378969	-0.000156
691.000000	58.304061	-0.000159
692.000000	58.207094	-0.000150
693.000000	58.666752	-0.000141
694.000000	58.682358	-0.000134
695.000000	58.257115	-0.000134
696.000000	58.730448	-0.000142
697.000000	58.676056	-0.000153
698.000000	58.512232	-0.000159
699.000000	58.337527	-0.000154
700.000000	58.522795	-0.000148
701.000000	57.869552	-0.000143
702.000000	58.053174	-0.000136
703.000000	57.946365	-0.000141
704.000000	58.075939	-0.000156
705.000000	57.725059	-0.000157
706.000000	57.770446	-0.000151
707.000000	57.743196	-0.000150
708.000000	57.778678	-0.000146
709.000000	57.548177	-0.000132
710.000000	56.787950	-0.000133
711.000000	56.730078	-0.000156
712.000000	56.322078	-0.000164
713.000000	56.293870	-0.000154
714.000000	56.104734	-0.000141
715.000000	56.373122	-0.000130
716.000000	56.076177	-0.000131
717.000000	55.332244	-0.000133
718.000000	54.945846	-0.000140
719.000000	54.250234	-0.000147
720.000000	53.929380	-0.000145
721.000000	53.794012	-0.000143
722.000000	53.285895	-0.000136
723.000000	52.894065	-0.000126
724.000000	52.589698	-0.000127
725.000000	51.892618	-0.000131
726.000000	51.669707	-0.000136
727.000000	50.870232	-0.000137
728.000000	50.831208	-0.000134
729.000000	49.934184	-0.000126
730.000000	49.257164	-0.000119
731.000000	49.100090	-0.000116
732.000000	48.091861	-0.000116
733.000000	47.459703	-0.000120
734.000000	46.606922	-0.000124
735.000000	46.176747	-0.000121
736.000000	45.619618	-0.000117
737.000000	44.618392	-0.000112
738.000000	43.817296	-0.000106
739.000000	43.138628	-0.000104
740.000000	42.030903	-0.000103
741.000000	41.423920	-0.000104
742.000000	40.479779	-0.000104
743.000000	39.536847	-9.963493E-5
744.000000	38.703038	-9.302952E-5
745.000000	37.922283	-8.866064E-5
746.000000	36.784333	-8.422171E-5
747.000000	35.747725	-8.216666E-5
748.000000	34.829763	-8.283199E-5
749.000000	33.806251	-8.086784E-5
750.000000	32.924454	-7.860608E-5
751.000000	31.846061	-7.440033E-5
752.000000	30.863559	-6.855992E-5
753.000000	29.809923	-6.446432E-5
754.000000	28.623694	-6.071973E-5
755.000000	27.543561	-5.918736E-5
756.000000	26.597524	-5.833709E-5
757.000000	25.603988	-5.605754E-5
758.000000	24.531404	-5.288077E-5
759.000000	23.490829	-4.961133E-5
760.000000	22.599188	-4.584623E-5
761.000000	21.583836	-4.237754E-5
762.000000	20.506584	-4.017262E-5
763.000000	19.511811	-3.877372E-5
764.000000	18.668754	-3.772030E-5
765.000000	17.793169	-3.586045E-5
766.000000	16.974607	-3.346858E-5
767.000000	16.116947	-3.102186E-5
768.000000	15.239720	-2.845539E-5
769.000000	14.418591	-2.644848E-5
770.000000	13.636712	-2.515674E-5
771.000000	12.903023	-2.415124E-5
772.000000	12.249329	-2.318161E-5
773.000000	11.598544	-2.177262E-5
774.000000	10.955623	-2.000919E-5
775.000000	10.344281	-1.816369E-5
776.000000	9.735092	-1.657586E-5
777.000000	9.198528	-1.571520E-5
778.000000	8.708278	-1.531089E-5
779.000000	8.207240	-1.483996E-5
780.000000	7.743579	-1.413279E-5
781.000000	7.339294	-1.305798E-5
782.000000	6.942540	-1.187894E-5
783.000000	6.573544	-1.087346E-5
784.000000	6.214009	-1.021980E-5
785.000000	5.836779	-9.873522E-6
786.000000	5.567593	-9.556176E-6
787.000000	5.263979	-9.102516E-6
788.000000	5.018508	-8.559386E-6
789.000000	4.744054	-7.754882E-6
790.000000	4.492947	-7.109740E-6
791.000000	4.273710	-6.642258E-6
792.000000	4.041769	-6.406457E-6
793.000000	3.832017	-6.298734E-6
794.000000	3.627175	-6.217594E-6
795.000000	3.472449	-6.011573E-6
796.000000	3.309391	-5.491453E-6
797.000000	3.147300	-5.040632E-6
798.000000	2.994907	-4.756496E-6
799.000000	2.844258	-4.584907E-6
800.000000	2.707735	-4.547433E-6
801.000000	2.584414	-4.542402E-6
802.000000	2.476443	-4.405062E-6
803.000000	2.379055	-4.112337E-6
804.000000	2.273941	-3.730515E-6
805.000000	2.169092	-3.432948E-6
806.000000	2.065483	-3.250755E-6
807.000000	1.981509	-3.212563E-6
808.000000	1.905910	-3.255533E-6
809.000000	1.832355	-3.184776E-6
810.000000	1.762263	-2.978042E-6
811.000000	1.685766	-2.762601E-6
812.000000	1.621564	-2.512159E-6
813.000000	1.552988	-2.335025E-6
814.000000	1.489318	-2.304381E-6
815.000000	1.426934	-2.300052E-6
816.000000	1.372643	-2.317053E-6
817.000000	1.329086	-2.244101E-6
818.000000	1.277075	-2.033863E-6
819.000000	1.227817	-1.849617E-6
820.000000	1.184543	-1.730793E-6
821.000000	1.139019	-1.677080E-6
822.000000	1.092685	-1.698031E-6
823.000000	1.051096	-1.727150E-6
824.000000	1.019631	-1.698335E-6
825.000000	0.980477	-1.598032E-6
826.000000	0.945590	-1.465090E-6
827.000000	0.910245	-1.366681E-6
828.000000	0.877429	-1.330192E-6
829.000000	0.848694	-1.311586E-6
830.000000	0.814244	-1.309138E-6
831.000000	0.785396	-1.299044E-6
832.000000	0.758331	-1.239507E-6
833.000000	0.734054	-1.154586E-6
834.000000	0.707541	-1.059425E-6
835.000000	0.680499	-9.866795E-7
836.000000	0.653924	-9.641019E-7
837.000000	0.632193	-9.642532E-7
838.000000	0.608908	-9.517897E-7
839.000000	0.587139	-9.257768E-7
840.000000	0.568294	-8.824094E-7
841.000000	0.549488	-8.161736E-7
842.000000	0.528006	-7.648793E-7
843.000000	0.508174	-7.464898E-7
844.000000	0.492453	-7.391320E-7
845.000000	0.473815	-7.258603E-7
846.000000	0.457802	-7.053193E-7
847.000000	0.443507	-6.724787E-7
848.000000	0.429157	-6.242375E-7
849.000000	0.412396	-5.747951E-7
850.000000	0.397053	-5.538636E-7
851.000000	0.383905	-5.435526E-7
852.000000	0.369949	-5.291153E-7
853.000000	0.356103	-5.167602E-7
854.000000	0.345561	-4.933100E-7
855.000000	0.332072	-4.568925E-7
856.000000	0.320427	-4.271500E-7
857.000000	0.310290	-4.038279E-7
858.000000	0.297820	-3.902788E-7
859.000000	0.285900	-3.820403E-7
860.000000	0.276698	-3.664147E-7
861.000000	0.267401	-3.432299E-7
862.000000	0.258200	-3.169197E-7
863.000000	0.249811	-2.925960E-7
864.000000	0.241657	-2.778730E-7
865.000000	0.233109	-2.663602E-7
866.000000	0.224846	-2.531416E-7
867.000000	0.215815	-2.444583E-7
868.000000	0.208727	-2.308327E-7
869.000000	0.201496	-2.120408E-7
870.000000	0.194819	-1.987387E-7
871.000000	0.186492	-1.863576E-7
872.000000	0.180576	-1.779446E-7
873.000000	0.173863	-1.722098E-7
874.000000	0.167583	-1.643422E-7
875.000000	0.161421	-1.545738E-7
876.000000	0.156277	-1.450030E-7
877.000000	0.149820	-1.342925E-7
878.000000	0.144606	-1.276655E-7
879.000000	0.139568	-1.216537E-7
880.000000	0.134327	-1.157847E-7
881.000000	0.129175	-1.111786E-7
882.000000	0.124283	-1.053100E-7
883.000000	0.119427	-9.962588E-8
884.000000	0.115019	-9.475577E-8
885.000000	0.110925	-8.898319E-8
886.000000	0.106944	-8.399851E-8
887.000000	0.103080	-8.113328E-8
888.000000	0.099526	-7.828335E-8
889.000000	0.095705	-7.489263E-8
890.000000	0.092506	-7.151602E-8
891.000000	0.089077	-6.781237E-8
892.000000	0.085866	-6.428328E-8
893.000000	0.082554	-6.155894E-8
894.000000	0.079310	-6.013030E-8
895.000000	0.076795	-5.804317E-8
896.000000	0.073572	-5.491355E-8
897.000000	0.070642	-5.280226E-8
898.000000	0.068386	-5.065160E-8
899.000000	0.065857	-4.863904E-8
900.000000	0.063278	-4.663082E-8
901.000000	0.060781	-4.460842E-8
902.000000	0.058736	-4.336811E-8
903.000000	0.056448	-4.132027E-8
904.000000	0.054400	-3.959088E-8
905.000000	0.052151	-3.841260E-8
906.000000	0.050234	-3.672523E-8
907.000000	0.048397	-3.530269E-8
908.000000	0.046450	-3.397231E-8
909.000000	0.044578	-3.234017E-8
910.000000	0.042959	-3.133492E-8
911.000000	0.041213	-3.000400E-8
912.000000	0.039680	-2.895947E-8
913.000000	0.038081	-2.806544E-8
914.000000	0.036658	-2.684660E-8
915.000000	0.035281	-2.580130E-8
916.000000	0.033952	-2.457365E-8
917.000000	0.032709	-2.338163E-8
918.000000	0.031420	-2.279073E-8
919.000000	0.030206	-2.194283E-8
920.000000	0.028955	-2.071354E-8
921.000000	0.027854	-2.006472E-8
922.000000	0.026795	-1.917788E-8
923.000000	0.025791	-1.827041E-8
924.000000	0.024861	-1.766999E-8
925.000000	0.023878	-1.683700E-8
926.000000	0.022916	-1.627651E-8
927.000000	0.022010	-1.568485E-8
928.000000	0.021181	-1.497039E-8
929.000000	0.020347	-1.441530E-8
930.000000	0.019594	-1.354363E-8
931.000000	0.018801	-1.277423E-8
932.000000	0.018143	-1.231993E-8
933.000000	0.017432	-1.167495E-8
934.000000	0.016716	-1.123922E-8
935.000000	0.016100	-1.079346E-8
936.000000	0.015429	-1.022033E-8
937.000000	0.014872	-9.898944E-9
938.000000	0.014352	-9.402184E-9
939.000000	0.013797	-8.932261E-9
940.000000	0.013252	-8.685435E-9
941.000000	0.012743	-8.308404E-9
942.000000	0.012254	-8.008858E-9
943.000000	0.011763	-7.669000E-9
944.000000	0.011290	-7.181487E-9
945.000000	0.010875	-6.833755E-9
946.000000	0.010435	-6.465390E-9
947.000000	0.010063	-6.150938E-9
948.000000	0.009694	-5.978369E-9
949.000000	0.009354	-5.724675E-9
950.000000	0.008968	-5.467019E-9
951.000000	0.008637	-5.242922E-9
952.000000	0.008321	-4.961213E-9
953.000000	0.007980	-4.768809E-9
954.000000	0.007724	-4.610886E-9
955.000000	0.007422	-4.383707E-9
956.000000	0.007141	-4.242900E-9
957.000000	0.006862	-4.038945E-9
958.000000	0.006603	-3.820353E-9
959.000000	0.006374	-3.642071E-9
960.000000	0.006140	-3.418646E-9
961.000000	0.005918	-3.271335E-9
962.000000	0.005701	-3.141424E-9
963.000000	0.005485	-3.009630E-9
964.000000	0.005287	-2.925333E-9
965.000000	0.005096	-2.783255E-9
966.000000	0.004887	-2.632877E-9
967.000000	0.004745	-2.552837E-9
968.000000	0.004571	-2.432119E-9
969.000000	0.004395	-2.336833E-9
970.000000	0.004243	-2.250768E-9
971.000000	0.004098	-2.135933E-9
972.000000	0.003955	-2.037267E-9
973.000000	0.003819	-1.930767E-9
974.000000	0.003686	-1.822713E-9
975.000000	0.003565	-1.743300E-9
976.000000	0.003447	-1.666328E-9
977.000000	0.003321	-1.603546E-9
978.000000	0.003212	-1.557481E-9
979.000000	0.003103	-1.494711E-9
980.000000	0.003000	-1.440404E-9
981.000000	0.002901	-1.381218E-9
982.000000	0.002801	-1.327386E-9
983.000000	0.002699	-1.288684E-9
984.000000	0.002613	-1.238954E-9
985.000000	0.002529	-1.188073E-9
986.000000	0.002451	-1.137615E-9
987.000000	0.002376	-1.079338E-9
988.000000	0.002311	-1.032610E-9
989.000000	0.002247	-9.918589E-10
990.000000	0.002170	-9.477483E-10
991.000000	0.002093	-9.168876E-10
992.000000	0.002030	-8.941814E-10
993.000000	0.001965	-8.722670E-10
994.000000	0.001900	-8.554896E-10
995.000000	0.001846	-8.315752E-10
996.000000	0.001783	-8.055835E-10
997.000000	0.001729	-7.797033E-10
998.000000	0.001680	-7.566620E-10
999.000000	0.001626	-7.349058E-10
1000.000000	0.001577	-7.082805E-10
1001.000000	0.001531	-6.836848E-10
1002.000000	0.001489	-6.617935E-10
1003.000000	0.001442	-6.345293E-10
1004.000000	0.001406	-6.126726E-10
1005.000000	0.001368	-5.967288E-10
1006.000000	0.001329	-5.829913E-10
1007.000000	0.001287	-5.718347E-10
1008.000000	0.001249	-5.595102E-10
1009.000000	0.001211	-5.416371E-10
1010.000000	0.001174	-5.281223E-10
1011.000000	0.001146	-5.133636E-10
1012.000000	0.001112	-5.006993E-10
1013.000000	0.001078	-4.937246E-10
1014.000000	0.001045	-4.808902E-10
1015.000000	0.001018	-4.678505E-10
1016.000000	0.000983	-4.540831E-10
1017.000000	0.000958	-4.482526E-10
1018.000000	0.000931	-4.457364E-10
1019.000000	0.000892	-4.425743E-10
1020.000000	0.000867	-4.446276E-10
1021.000000	0.000832	-4.380050E-10
1022.000000	0.000806	-4.238682E-10
1023.000000	0.000785	-4.141131E-10
1024.000000	0.000756	-4.092265E-10
1025.000000	0.000729	-4.100716E-10
1026.000000	0.000699	-4.125997E-10
1027.000000	0.000673	-4.166296E-10
1028.000000	0.000648	-4.230588E-10
1029.000000	0.000622	-4.279041E-10
1030.000000	0.000603	-4.308720E-10
1031.000000	0.000585	-4.289069E-10
1032.000000	0.000569	-4.237626E-10
1033.000000	0.000556	-4.115085E-10
1034.000000	0.000552	-3.950490E-10
1035.000000	0.000545	-3.702601E-10
1036.000000	0.000539	-3.437872E-10
1037.000000	0.000532	-3.194616E-10
1038.000000	0.000519	-2.996817E-10
1039.000000	0.000512	-2.861552E-10
1040.000000	0.000500	-2.741596E-10
1041.000000	0.000490	-2.664869E-10
1042.000000	0.000480	-2.584153E-10
1043.000000	0.000470	-2.511417E-10
1044.000000	0.000460	-2.455458E-10
1045.000000	0.000448	-2.415629E-10
1046.000000	0.000436	-2.386474E-10
1047.000000	0.000422	-2.379964E-10
1048.000000	0.000407	-2.377618E-10
1049.000000	0.000392	-2.361487E-10
1050.000000	0.000380	-2.358787E-10
1051.000000	0.000368	-2.328991E-10
1052.000000	0.000357	-2.319485E-10
1053.000000	0.000343	-2.324707E-10
1054.000000	0.000331	-2.323653E-10
1055.000000	0.000317	-2.316731E-10
1056.000000	0.000305	-2.366121E-10
1057.000000	0.000292	-2.402898E-10
1058.000000	0.000283	-2.456630E-10
1059.000000	0.000269	-2.547493E-10
1060.000000	0.000256	-2.755086E-10
1061.000000	0.000242	-3.065274E-10
1062.000000	0.000227	-3.563695E-10
1063.000000	0.000206	-5.091929E-10
1064.000000	0.000181	-8.395825E-10
1065.000000	0.000181	-9.513564E-10
1066.000000	0.000180	-6.425711E-10
1067.000000	0.000184	-3.809473E-10
1068.000000	0.000188	-2.894812E-10
1069.000000	0.000196	-2.336381E-10
1070.000000	0.000207	-1.991175E-10
1071.000000	0.000209	-1.786104E-10
1072.000000	0.000216	-1.676351E-10
1073.000000	0.000216	-1.570417E-10
1074.000000	0.000220	-1.489526E-10
1075.000000	0.000220	-1.414091E-10
1076.000000	0.000219	-1.351794E-10
1077.000000	0.000219	-1.307391E-10
1078.000000	0.000217	-1.259291E-10
1079.000000	0.000215	-1.214886E-10
1080.000000	0.000212	-1.178576E-10
1081.000000	0.000209	-1.133232E-10
1082.000000	0.000207	-1.100326E-10
1083.000000	0.000206	-1.080499E-10
1084.000000	0.000204	-1.054632E-10
1085.000000	0.000201	-1.028997E-10
1086.000000	0.000200	-1.017265E-10
1087.000000	0.000197	-9.862346E-11
1088.000000	0.000196	-9.692239E-11
1089.000000	0.000193	-9.568449E-11
1090.000000	0.000190	-9.342635E-11
1091.000000	0.000189	-9.212416E-11
1092.000000	0.000187	-9.006514E-11
1093.000000	0.000184	-8.747245E-11
1094.000000	0.000184	-8.614084E-11
1095.000000	0.000183	-8.402329E-11
1096.000000	0.000180	-8.209346E-11
1097.000000	0.000177	-8.133674E-11
1098.000000	0.000176	-8.047452E-11
1099.000000	0.000172	-8.049793E-11
1100.000000	0.000167	-7.998170E-11
