Wavelength (nm)	EQE (%)	Current (A)	Dark Current (A) -> 	-25.483022000E-9	
400.000000	12.715397	-2.752244E-7
401.000000	12.502738	-3.745357E-7
402.000000	11.354833	-5.167706E-7
403.000000	10.731846	-7.261065E-7
404.000000	15.852048	-1.440317E-6
405.000000	15.076893	-1.830144E-6
406.000000	14.985984	-2.495624E-6
407.000000	15.136403	-2.739716E-6
408.000000	14.964906	-2.945805E-6
409.000000	14.987843	-3.298239E-6
410.000000	15.196008	-3.354087E-6
411.000000	14.944863	-4.379445E-6
412.000000	14.900351	-5.080760E-6
413.000000	14.743773	-6.526984E-6
414.000000	14.759909	-7.609794E-6
415.000000	15.123022	-7.778060E-6
416.000000	15.161650	-7.442414E-6
417.000000	15.231939	-6.690090E-6
418.000000	15.610840	-4.664502E-6
419.000000	15.728200	-3.425885E-6
420.000000	15.471467	-3.435248E-6
421.000000	15.388484	-3.725009E-6
422.000000	15.585015	-3.417354E-6
423.000000	15.496527	-3.533189E-6
424.000000	15.361393	-3.907746E-6
425.000000	15.401113	-4.230155E-6
426.000000	15.329831	-4.475370E-6
427.000000	15.502713	-4.709694E-6
428.000000	15.498837	-5.176690E-6
429.000000	15.510483	-5.780386E-6
430.000000	15.465514	-6.254123E-6
431.000000	15.482654	-6.374967E-6
432.000000	15.608244	-6.352941E-6
433.000000	15.554515	-6.435526E-6
434.000000	15.340662	-7.111235E-6
435.000000	15.610045	-7.388182E-6
436.000000	15.618440	-7.443171E-6
437.000000	15.667334	-8.049512E-6
438.000000	15.674286	-8.387000E-6
439.000000	15.782595	-8.303025E-6
440.000000	15.745595	-8.212181E-6
441.000000	15.791315	-9.042066E-6
442.000000	15.758510	-8.810166E-6
443.000000	15.916140	-8.514963E-6
444.000000	16.089572	-8.492096E-6
445.000000	16.055214	-8.424884E-6
446.000000	16.101464	-8.216250E-6
447.000000	15.990506	-9.122027E-6
448.000000	16.123557	-1.037993E-5
449.000000	16.204961	-9.721948E-6
450.000000	16.262097	-9.031372E-6
451.000000	16.356117	-9.951033E-6
452.000000	16.415929	-1.053403E-5
453.000000	16.454646	-9.781935E-6
454.000000	16.731795	-8.716615E-6
455.000000	16.378722	-8.967268E-6
456.000000	16.923953	-1.086446E-5
457.000000	16.720754	-1.187052E-5
458.000000	16.695350	-1.208479E-5
459.000000	16.531825	-1.131896E-5
460.000000	16.523602	-1.054731E-5
461.000000	16.725498	-1.002581E-5
462.000000	16.821828	-9.845310E-6
463.000000	16.798681	-9.878161E-6
464.000000	16.643722	-9.762659E-6
465.000000	16.798479	-9.956932E-6
466.000000	16.900329	-9.389246E-6
467.000000	17.163456	-7.733604E-6
468.000000	17.107758	-7.489596E-6
469.000000	16.870439	-9.566652E-6
470.000000	16.823325	-1.013762E-5
471.000000	17.127594	-7.885676E-6
472.000000	16.984462	-7.245676E-6
473.000000	16.518261	-9.691998E-6
474.000000	17.045308	-1.041282E-5
475.000000	17.278826	-8.174437E-6
476.000000	16.978556	-7.463592E-6
477.000000	16.785093	-8.713291E-6
478.000000	17.259569	-8.414738E-6
479.000000	17.047070	-8.036501E-6
480.000000	16.739016	-9.402095E-6
481.000000	17.101201	-9.498855E-6
482.000000	17.463069	-7.060126E-6
483.000000	17.035072	-7.008242E-6
484.000000	16.836386	-8.822585E-6
485.000000	16.864547	-7.480300E-6
486.000000	17.012757	-6.677745E-6
487.000000	16.772159	-7.834085E-6
488.000000	16.940675	-7.889686E-6
489.000000	17.153856	-6.771235E-6
490.000000	16.779842	-7.362913E-6
491.000000	16.811193	-8.181425E-6
492.000000	16.864072	-9.053826E-6
493.000000	16.704564	-9.546769E-6
494.000000	16.768015	-8.732236E-6
495.000000	16.725723	-8.446457E-6
496.000000	16.472302	-9.537426E-6
497.000000	16.374219	-1.016596E-5
498.000000	16.854189	-9.615481E-6
499.000000	16.796875	-9.261900E-6
500.000000	16.708577	-1.024392E-5
501.000000	16.701455	-1.228372E-5
502.000000	16.630703	-1.172258E-5
503.000000	16.608608	-1.084348E-5
504.000000	16.053625	-1.266190E-5
505.000000	16.452405	-1.441356E-5
506.000000	16.279948	-1.322350E-5
507.000000	16.269988	-1.060631E-5
508.000000	16.483942	-1.051238E-5
509.000000	16.197380	-1.058138E-5
510.000000	15.957213	-9.118805E-6
511.000000	16.223106	-8.234183E-6
512.000000	16.368734	-9.256744E-6
513.000000	16.593425	-1.071514E-5
514.000000	16.111813	-1.286425E-5
515.000000	16.392393	-1.497765E-5
516.000000	16.528154	-1.923492E-5
517.000000	16.400123	-2.289583E-5
518.000000	16.309272	-1.964442E-5
519.000000	16.312574	-1.600001E-5
520.000000	16.215426	-1.508862E-5
521.000000	16.157718	-1.154978E-5
522.000000	15.941052	-8.990679E-6
523.000000	16.339442	-8.423140E-6
524.000000	16.606414	-1.123183E-5
525.000000	16.561614	-1.568613E-5
526.000000	16.520144	-1.743950E-5
527.000000	16.622095	-1.897794E-5
528.000000	16.537794	-2.144163E-5
529.000000	16.590890	-2.059885E-5
530.000000	16.433522	-1.539340E-5
531.000000	16.330212	-1.150081E-5
532.000000	16.404166	-9.181686E-6
533.000000	16.324787	-9.651320E-6
534.000000	16.631791	-1.067248E-5
535.000000	16.874575	-1.358500E-5
536.000000	16.992942	-1.976353E-5
537.000000	16.858005	-1.976448E-5
538.000000	16.682895	-1.464960E-5
539.000000	17.172101	-1.483237E-5
540.000000	16.822236	-1.205607E-5
541.000000	16.628450	-1.038098E-5
542.000000	16.936757	-1.100858E-5
543.000000	17.098509	-1.299748E-5
544.000000	17.142086	-1.785113E-5
545.000000	17.149546	-1.931996E-5
546.000000	17.209872	-1.733091E-5
547.000000	17.456345	-1.753970E-5
548.000000	17.368536	-1.405915E-5
549.000000	17.436305	-1.028165E-5
550.000000	17.746674	-1.034840E-5
551.000000	17.789873	-1.144829E-5
552.000000	17.952502	-1.541381E-5
553.000000	17.771488	-1.890415E-5
554.000000	17.800976	-1.963112E-5
555.000000	17.688430	-1.978719E-5
556.000000	17.591501	-1.731011E-5
557.000000	17.742255	-1.369355E-5
558.000000	17.871950	-1.301220E-5
559.000000	18.124991	-1.458121E-5
560.000000	18.385846	-1.773641E-5
561.000000	18.038911	-2.081561E-5
562.000000	18.039660	-1.875432E-5
563.000000	18.281110	-1.876102E-5
564.000000	17.986348	-1.573447E-5
565.000000	18.435361	-1.251719E-5
566.000000	18.437306	-1.242903E-5
567.000000	18.599145	-1.334474E-5
568.000000	18.695916	-1.616680E-5
569.000000	18.306645	-1.831630E-5
570.000000	18.640712	-1.765427E-5
571.000000	18.705114	-1.652949E-5
572.000000	18.728134	-1.500003E-5
573.000000	18.698494	-1.221449E-5
574.000000	19.013071	-1.254463E-5
575.000000	19.058630	-1.466040E-5
576.000000	19.192434	-1.894119E-5
577.000000	19.054157	-2.098665E-5
578.000000	19.002099	-2.201466E-5
579.000000	19.019620	-2.052112E-5
580.000000	19.116682	-1.690534E-5
581.000000	19.333250	-1.535981E-5
582.000000	19.296039	-1.458600E-5
583.000000	19.497653	-1.633315E-5
584.000000	19.546257	-1.965253E-5
585.000000	19.517023	-2.087387E-5
586.000000	19.651691	-2.011115E-5
587.000000	19.583586	-1.891101E-5
588.000000	19.624849	-1.589253E-5
589.000000	19.555292	-1.512739E-5
590.000000	19.755935	-1.584733E-5
591.000000	19.843966	-2.282959E-5
592.000000	19.902265	-2.308113E-5
593.000000	20.095676	-2.320752E-5
594.000000	20.022319	-2.214530E-5
595.000000	20.146096	-2.175032E-5
596.000000	20.167673	-2.198300E-5
597.000000	20.122904	-2.265640E-5
598.000000	20.021140	-2.460262E-5
599.000000	20.072538	-2.632573E-5
600.000000	20.204766	-2.760365E-5
601.000000	20.133305	-2.852149E-5
602.000000	20.165711	-2.836792E-5
603.000000	20.351379	-2.795558E-5
604.000000	20.345507	-2.624740E-5
605.000000	20.642806	-2.538136E-5
606.000000	20.636390	-2.565587E-5
607.000000	20.673051	-2.607280E-5
608.000000	20.629229	-2.847347E-5
609.000000	20.632555	-3.075682E-5
610.000000	20.809889	-3.250139E-5
611.000000	21.017536	-3.390433E-5
612.000000	20.975092	-3.334778E-5
613.000000	21.224712	-3.236751E-5
614.000000	21.221581	-3.015662E-5
615.000000	21.150761	-2.845361E-5
616.000000	21.389231	-2.886215E-5
617.000000	21.332361	-3.026476E-5
618.000000	21.435272	-3.329752E-5
619.000000	21.522250	-3.562814E-5
620.000000	21.663352	-3.686996E-5
621.000000	21.832089	-3.810813E-5
622.000000	21.730703	-3.861960E-5
623.000000	21.889539	-3.986454E-5
624.000000	21.975704	-4.101767E-5
625.000000	21.217046	-4.199897E-5
626.000000	21.698884	-4.043751E-5
627.000000	21.104295	-3.957254E-5
628.000000	20.983362	-3.927256E-5
629.000000	21.289117	-3.961229E-5
630.000000	21.225957	-4.013237E-5
631.000000	21.320266	-4.202994E-5
632.000000	21.386529	-4.410243E-5
633.000000	21.376554	-4.555475E-5
634.000000	21.430420	-4.680227E-5
635.000000	21.376806	-4.656808E-5
636.000000	21.445367	-4.594035E-5
637.000000	21.440649	-4.599260E-5
638.000000	21.352043	-4.578353E-5
639.000000	21.410887	-4.622805E-5
640.000000	21.370835	-4.534960E-5
641.000000	21.340002	-4.442705E-5
642.000000	21.380269	-4.460009E-5
643.000000	21.392874	-4.482395E-5
644.000000	21.343659	-4.695070E-5
645.000000	21.412119	-4.932651E-5
646.000000	21.460590	-5.099208E-5
647.000000	21.406224	-5.084833E-5
648.000000	21.352594	-4.850659E-5
649.000000	21.403590	-4.693279E-5
650.000000	21.327861	-4.552257E-5
651.000000	21.251828	-4.625690E-5
652.000000	21.365414	-4.915716E-5
653.000000	21.411269	-5.090928E-5
654.000000	21.297614	-5.200023E-5
655.000000	21.289204	-5.006093E-5
656.000000	21.301285	-4.776195E-5
657.000000	21.323298	-4.699586E-5
658.000000	21.350242	-4.614854E-5
659.000000	21.291784	-4.841955E-5
660.000000	21.230483	-5.256537E-5
661.000000	21.254671	-5.456016E-5
662.000000	21.261895	-5.557294E-5
663.000000	21.420491	-5.289473E-5
664.000000	21.369085	-4.737833E-5
665.000000	21.279194	-4.488292E-5
666.000000	21.282923	-4.631562E-5
667.000000	21.339768	-4.994853E-5
668.000000	21.313175	-5.391525E-5
669.000000	21.259355	-5.670090E-5
670.000000	21.418159	-5.556252E-5
671.000000	21.407640	-5.107166E-5
672.000000	21.300964	-4.952224E-5
673.000000	21.381808	-4.853817E-5
674.000000	21.271138	-4.874192E-5
675.000000	21.450468	-5.369661E-5
676.000000	21.433135	-5.571801E-5
677.000000	21.513354	-5.531026E-5
678.000000	21.441051	-5.505210E-5
679.000000	21.385349	-5.111464E-5
680.000000	21.446988	-4.849243E-5
681.000000	21.541589	-5.087305E-5
682.000000	21.543812	-5.446271E-5
683.000000	21.387913	-5.603490E-5
684.000000	21.427494	-5.710448E-5
685.000000	21.522857	-5.625194E-5
686.000000	21.491863	-5.064280E-5
687.000000	21.548156	-4.911781E-5
688.000000	21.586606	-5.291386E-5
689.000000	21.604715	-5.482382E-5
690.000000	21.602172	-5.765632E-5
691.000000	21.686300	-5.909161E-5
692.000000	21.693043	-5.604516E-5
693.000000	21.968164	-5.291640E-5
694.000000	21.867649	-5.005713E-5
695.000000	21.563068	-4.954425E-5
696.000000	21.640377	-5.229875E-5
697.000000	21.658926	-5.643264E-5
698.000000	21.607909	-5.869132E-5
699.000000	21.621474	-5.695769E-5
700.000000	21.695354	-5.468907E-5
701.000000	21.583969	-5.343396E-5
702.000000	21.616131	-5.075797E-5
703.000000	21.461591	-5.218627E-5
704.000000	21.439276	-5.746807E-5
705.000000	21.403382	-5.822971E-5
706.000000	21.296798	-5.557780E-5
707.000000	21.428072	-5.566975E-5
708.000000	21.497971	-5.441139E-5
709.000000	21.330128	-4.902675E-5
710.000000	21.033223	-4.923152E-5
711.000000	20.985708	-5.764344E-5
712.000000	20.884111	-6.097761E-5
713.000000	20.892591	-5.730352E-5
714.000000	20.789042	-5.219799E-5
715.000000	20.907941	-4.838676E-5
716.000000	20.800826	-4.850395E-5
717.000000	20.593318	-4.966968E-5
718.000000	20.348470	-5.191178E-5
719.000000	20.119900	-5.443372E-5
720.000000	20.033046	-5.400831E-5
721.000000	19.980418	-5.324828E-5
722.000000	19.763014	-5.025685E-5
723.000000	19.636901	-4.683737E-5
724.000000	19.458068	-4.683727E-5
725.000000	19.304482	-4.879662E-5
726.000000	19.147948	-5.022583E-5
727.000000	18.860155	-5.096790E-5
728.000000	18.856789	-4.978430E-5
729.000000	18.635703	-4.717401E-5
730.000000	18.451907	-4.463386E-5
731.000000	18.319607	-4.333773E-5
732.000000	17.983899	-4.347676E-5
733.000000	17.726311	-4.493353E-5
734.000000	17.344398	-4.620133E-5
735.000000	17.220427	-4.518070E-5
736.000000	16.974346	-4.343776E-5
737.000000	16.706763	-4.183188E-5
738.000000	16.354049	-3.948888E-5
739.000000	16.131268	-3.876485E-5
740.000000	15.789063	-3.873241E-5
741.000000	15.508289	-3.894683E-5
742.000000	15.189416	-3.904688E-5
743.000000	14.756073	-3.718608E-5
744.000000	14.474537	-3.479208E-5
745.000000	14.124336	-3.302208E-5
746.000000	13.789634	-3.157286E-5
747.000000	13.377933	-3.074937E-5
748.000000	13.072596	-3.108919E-5
749.000000	12.709028	-3.040123E-5
750.000000	12.318281	-2.940950E-5
751.000000	11.952240	-2.792341E-5
752.000000	11.568685	-2.569853E-5
753.000000	11.152349	-2.411709E-5
754.000000	10.789111	-2.288705E-5
755.000000	10.323847	-2.218454E-5
756.000000	9.980026	-2.188947E-5
757.000000	9.595641	-2.100876E-5
758.000000	9.216910	-1.986830E-5
759.000000	8.846842	-1.868404E-5
760.000000	8.490225	-1.722384E-5
761.000000	8.073047	-1.585056E-5
762.000000	7.712178	-1.510824E-5
763.000000	7.355313	-1.461642E-5
764.000000	7.018817	-1.418155E-5
765.000000	6.680606	-1.346413E-5
766.000000	6.373797	-1.256712E-5
767.000000	6.072348	-1.168804E-5
768.000000	5.756240	-1.074797E-5
769.000000	5.457355	-1.001060E-5
770.000000	5.141255	-9.484488E-6
771.000000	4.897742	-9.167352E-6
772.000000	4.646595	-8.793588E-6
773.000000	4.410893	-8.280064E-6
774.000000	4.180760	-7.635679E-6
775.000000	3.968847	-6.968963E-6
776.000000	3.734674	-6.358999E-6
777.000000	3.520807	-6.015112E-6
778.000000	3.318927	-5.835336E-6
779.000000	3.129827	-5.659212E-6
780.000000	2.966782	-5.414668E-6
781.000000	2.831547	-5.037853E-6
782.000000	2.698621	-4.617439E-6
783.000000	2.539318	-4.200349E-6
784.000000	2.388630	-3.928433E-6
785.000000	2.244433	-3.796693E-6
786.000000	2.143516	-3.679115E-6
787.000000	2.034240	-3.517624E-6
788.000000	1.941764	-3.311803E-6
789.000000	1.859213	-3.039168E-6
790.000000	1.754920	-2.777025E-6
791.000000	1.674393	-2.602365E-6
792.000000	1.574865	-2.496260E-6
793.000000	1.491041	-2.450842E-6
794.000000	1.410420	-2.417700E-6
795.000000	1.361438	-2.356949E-6
796.000000	1.312906	-2.178576E-6
797.000000	1.248835	-2.000101E-6
798.000000	1.196564	-1.900377E-6
799.000000	1.135156	-1.829857E-6
800.000000	1.077409	-1.809425E-6
801.000000	1.027545	-1.806028E-6
802.000000	0.987564	-1.756665E-6
803.000000	0.956662	-1.653647E-6
804.000000	0.926043	-1.519220E-6
805.000000	0.888025	-1.405446E-6
806.000000	0.846029	-1.331521E-6
807.000000	0.810810	-1.314542E-6
808.000000	0.775801	-1.325166E-6
809.000000	0.748441	-1.300848E-6
810.000000	0.729491	-1.232764E-6
811.000000	0.704151	-1.153950E-6
812.000000	0.681937	-1.056470E-6
813.000000	0.425781	-6.401918E-7
814.000000	0.519406	-8.036637E-7
815.000000	0.546800	-8.813789E-7
816.000000	0.542276	-9.153738E-7
817.000000	0.551017	-9.303665E-7
818.000000	0.572603	-9.119250E-7
819.000000	0.573759	-8.643260E-7
820.000000	0.555651	-8.118888E-7
821.000000	0.523299	-7.705002E-7
822.000000	0.481934	-7.489256E-7
823.000000	0.452232	-7.431023E-7
824.000000	0.444799	-7.408734E-7
825.000000	0.447116	-7.287324E-7
826.000000	0.453203	-7.021884E-7
827.000000	0.443076	-6.652537E-7
828.000000	0.419235	-6.355657E-7
829.000000	0.399908	-6.180250E-7
830.000000	0.377845	-6.074976E-7
831.000000	0.362739	-5.999697E-7
832.000000	0.361252	-5.904739E-7
833.000000	0.363742	-5.721253E-7
834.000000	0.364679	-5.460465E-7
835.000000	0.358552	-5.198771E-7
836.000000	0.337470	-4.975425E-7
837.000000	0.317302	-4.839648E-7
838.000000	0.304333	-4.757067E-7
839.000000	0.298021	-4.699077E-7
840.000000	0.297853	-4.624876E-7
841.000000	0.300779	-4.467576E-7
842.000000	0.297535	-4.310137E-7
843.000000	0.280892	-4.126205E-7
844.000000	0.268682	-4.032703E-7
845.000000	0.258839	-3.965284E-7
846.000000	0.252356	-3.887954E-7
847.000000	0.251913	-3.819695E-7
848.000000	0.255797	-3.720740E-7
849.000000	0.257229	-3.585245E-7
850.000000	0.247218	-3.448532E-7
851.000000	0.237061	-3.356428E-7
852.000000	0.229569	-3.283388E-7
853.000000	0.223507	-3.243427E-7
854.000000	0.221595	-3.163407E-7
855.000000	0.223967	-3.081524E-7
856.000000	0.223835	-2.983871E-7
857.000000	0.221494	-2.882640E-7
858.000000	0.213382	-2.796269E-7
859.000000	0.204796	-2.736634E-7
860.000000	0.202732	-2.684655E-7
861.000000	0.203667	-2.614219E-7
862.000000	0.207524	-2.547189E-7
863.000000	0.211718	-2.479787E-7
864.000000	0.207176	-2.382252E-7
865.000000	0.202643	-2.315478E-7
866.000000	0.201980	-2.273988E-7
867.000000	0.196648	-2.227468E-7
868.000000	0.199047	-2.201269E-7
869.000000	0.203143	-2.137743E-7
870.000000	0.204253	-2.083621E-7
871.000000	0.203952	-2.038056E-7
872.000000	0.202562	-1.996101E-7
873.000000	0.198106	-1.962226E-7
874.000000	0.196208	-1.924141E-7
875.000000	0.196592	-1.882536E-7
876.000000	0.201022	-1.865200E-7
877.000000	0.204231	-1.830636E-7
878.000000	0.203333	-1.795117E-7
879.000000	0.202028	-1.760971E-7
880.000000	0.200660	-1.729608E-7
881.000000	0.199240	-1.714821E-7
882.000000	0.200925	-1.702524E-7
883.000000	0.201620	-1.681915E-7
884.000000	0.203221	-1.674194E-7
885.000000	0.206129	-1.653549E-7
886.000000	0.206850	-1.624698E-7
887.000000	0.205744	-1.619395E-7
888.000000	0.204470	-1.608283E-7
889.000000	0.202927	-1.587987E-7
890.000000	0.202058	-1.562106E-7
891.000000	0.201802	-1.536269E-7
892.000000	0.203642	-1.524557E-7
893.000000	0.203941	-1.520744E-7
894.000000	0.200700	-1.521655E-7
895.000000	0.199451	-1.507497E-7
896.000000	0.201409	-1.503308E-7
897.000000	0.199948	-1.494543E-7
898.000000	0.199438	-1.477190E-7
899.000000	0.200974	-1.484316E-7
900.000000	0.200014	-1.473936E-7
901.000000	0.199429	-1.463647E-7
902.000000	0.199298	-1.471524E-7
903.000000	0.198816	-1.455333E-7
904.000000	0.198408	-1.443972E-7
905.000000	0.194988	-1.436218E-7
906.000000	0.196060	-1.433348E-7
907.000000	0.195638	-1.427050E-7
908.000000	0.194891	-1.425391E-7
909.000000	0.194495	-1.411015E-7
910.000000	0.192437	-1.403648E-7
911.000000	0.194295	-1.414509E-7
912.000000	0.192159	-1.402412E-7
913.000000	0.190303	-1.402527E-7
914.000000	0.190806	-1.397369E-7
915.000000	0.190146	-1.390548E-7
916.000000	0.192243	-1.391392E-7
917.000000	0.194485	-1.390269E-7
918.000000	0.190559	-1.382256E-7
919.000000	0.190365	-1.382885E-7
920.000000	0.193397	-1.383504E-7
921.000000	0.191850	-1.382013E-7
922.000000	0.193101	-1.382096E-7
923.000000	0.193993	-1.374264E-7
924.000000	0.192778	-1.370149E-7
925.000000	0.194001	-1.367927E-7
926.000000	0.192244	-1.365426E-7
927.000000	0.191894	-1.367454E-7
928.000000	0.193953	-1.370842E-7
929.000000	0.192460	-1.363522E-7
930.000000	0.196009	-1.354843E-7
931.000000	0.198894	-1.351398E-7
932.000000	0.197371	-1.340275E-7
933.000000	0.199807	-1.338182E-7
934.000000	0.196755	-1.322897E-7
935.000000	0.200845	-1.346500E-7
936.000000	0.204415	-1.354089E-7
937.000000	0.203497	-1.354537E-7
938.000000	0.207509	-1.359417E-7
939.000000	0.207885	-1.345896E-7
940.000000	0.204284	-1.338872E-7
941.000000	0.205125	-1.337450E-7
942.000000	0.203634	-1.330885E-7
943.000000	0.204376	-1.332496E-7
944.000000	0.208421	-1.325725E-7
945.000000	0.209866	-1.318799E-7
946.000000	0.212135	-1.314373E-7
947.000000	0.217121	-1.327160E-7
948.000000	0.212408	-1.309941E-7
949.000000	0.214743	-1.314270E-7
950.000000	0.213009	-1.298530E-7
951.000000	0.215374	-1.307398E-7
952.000000	0.219328	-1.307643E-7
953.000000	0.218195	-1.303989E-7
954.000000	0.219171	-1.308327E-7
955.000000	0.222816	-1.316005E-7
956.000000	0.220780	-1.311717E-7
957.000000	0.223200	-1.313674E-7
958.000000	0.227212	-1.314573E-7
959.000000	0.232186	-1.326738E-7
960.000000	0.237548	-1.322645E-7
961.000000	0.237104	-1.310605E-7
962.000000	0.236958	-1.305686E-7
963.000000	0.238236	-1.307255E-7
964.000000	0.236157	-1.306683E-7
965.000000	0.235567	-1.286690E-7
966.000000	0.239432	-1.289948E-7
967.000000	0.241453	-1.299010E-7
968.000000	0.243105	-1.293595E-7
969.000000	0.239530	-1.273675E-7
970.000000	0.240554	-1.276012E-7
971.000000	0.245201	-1.278062E-7
972.000000	0.248263	-1.278804E-7
973.000000	0.251104	-1.269589E-7
974.000000	0.257906	-1.275468E-7
975.000000	0.262661	-1.284396E-7
976.000000	0.265567	-1.283753E-7
977.000000	0.263879	-1.274023E-7
978.000000	0.263653	-1.278613E-7
979.000000	0.267867	-1.290268E-7
980.000000	0.268195	-1.287716E-7
981.000000	0.270441	-1.287708E-7
982.000000	0.273296	-1.295332E-7
983.000000	0.271568	-1.296589E-7
984.000000	0.271962	-1.289287E-7
985.000000	0.273312	-1.283974E-7
986.000000	0.274614	-1.274757E-7
987.000000	0.281574	-1.278840E-7
988.000000	0.285954	-1.277523E-7
989.000000	0.289117	-1.276412E-7
990.000000	0.291254	-1.271765E-7
991.000000	0.290766	-1.273860E-7
992.000000	0.293123	-1.291412E-7
993.000000	0.289851	-1.286861E-7
994.000000	0.285838	-1.286734E-7
995.000000	0.284717	-1.282622E-7
996.000000	0.283331	-1.279887E-7
997.000000	0.284789	-1.284369E-7
998.000000	0.285005	-1.283894E-7
999.000000	0.285297	-1.289342E-7
1000.000000	0.287164	-1.289833E-7
1001.000000	0.286536	-1.279378E-7
1002.000000	0.289420	-1.286259E-7
1003.000000	0.290195	-1.277035E-7
1004.000000	0.294260	-1.282117E-7
1005.000000	0.295920	-1.291193E-7
1006.000000	0.294926	-1.293742E-7
1007.000000	0.289635	-1.286944E-7
1008.000000	0.288476	-1.292565E-7
1009.000000	0.290700	-1.300440E-7
1010.000000	0.289827	-1.304138E-7
1011.000000	0.290313	-1.300557E-7
1012.000000	0.286809	-1.291625E-7
1013.000000	0.282413	-1.293914E-7
1014.000000	0.282823	-1.301338E-7
1015.000000	0.283057	-1.300251E-7
1016.000000	0.280078	-1.294105E-7
1017.000000	0.275737	-1.289703E-7
1018.000000	0.272371	-1.303779E-7
1019.000000	0.261806	-1.298513E-7
1020.000000	0.253188	-1.299118E-7
1021.000000	0.246392	-1.297292E-7
1022.000000	0.246973	-1.299021E-7
1023.000000	0.244648	-1.290863E-7
1024.000000	0.236647	-1.281753E-7
1025.000000	0.228399	-1.285110E-7
1026.000000	0.218399	-1.288455E-7
1027.000000	0.209614	-1.297987E-7
1028.000000	0.198645	-1.296308E-7
1029.000000	0.188389	-1.296118E-7
1030.000000	0.182334	-1.303665E-7
1031.000000	0.178436	-1.307564E-7
1032.000000	0.175679	-1.307667E-7
1033.000000	0.176513	-1.306437E-7
1034.000000	0.183232	-1.311722E-7
1035.000000	0.191788	-1.304081E-7
1036.000000	0.202764	-1.292945E-7
1037.000000	0.217013	-1.304354E-7
1038.000000	0.228049	-1.316253E-7
1039.000000	0.236188	-1.319133E-7
1040.000000	0.240036	-1.316218E-7
1041.000000	0.239648	-1.302653E-7
1042.000000	0.243102	-1.307931E-7
1043.000000	0.244067	-1.305488E-7
1044.000000	0.243835	-1.302349E-7
1045.000000	0.243245	-1.310394E-7
1046.000000	0.241547	-1.322534E-7
1047.000000	0.234056	-1.320910E-7
1048.000000	0.226417	-1.322899E-7
1049.000000	0.219492	-1.323321E-7
1050.000000	0.213054	-1.320876E-7
1051.000000	0.207711	-1.314224E-7
1052.000000	0.203712	-1.325281E-7
1053.000000	0.194521	-1.317551E-7
1054.000000	0.186970	-1.311085E-7
1055.000000	0.180256	-1.316877E-7
1056.000000	0.169189	-1.312695E-7
1057.000000	0.159047	-1.306608E-7
1058.000000	0.149976	-1.302286E-7
1059.000000	0.137395	-1.298934E-7
1060.000000	0.121516	-1.308433E-7
1061.000000	0.102762	-1.303563E-7
1062.000000	0.083213	-1.304256E-7
1063.000000	0.052683	-1.301407E-7
1064.000000	0.028003	-1.299816E-7
1065.000000	0.024741	-1.301110E-7
1066.000000	0.036619	-1.303977E-7
1067.000000	0.062554	-1.294717E-7
1068.000000	0.083973	-1.291873E-7
1069.000000	0.109441	-1.304275E-7
1070.000000	0.135839	-1.309269E-7
1071.000000	0.153115	-1.309481E-7
1072.000000	0.167463	-1.298750E-7
1073.000000	0.179920	-1.310829E-7
1074.000000	0.194027	-1.314118E-7
1075.000000	0.204731	-1.317398E-7
1076.000000	0.213000	-1.312577E-7
1077.000000	0.220582	-1.318571E-7
1078.000000	0.226094	-1.314223E-7
1079.000000	0.231052	-1.307460E-7
1080.000000	0.232779	-1.293953E-7
1081.000000	0.240215	-1.301089E-7
1082.000000	0.243348	-1.294580E-7
1083.000000	0.246346	-1.294840E-7
1084.000000	0.250556	-1.293042E-7
1085.000000	0.254742	-1.303001E-7
1086.000000	0.255910	-1.302006E-7
1087.000000	0.262191	-1.309306E-7
1088.000000	0.262487	-1.298830E-7
1089.000000	0.263633	-1.304081E-7
1090.000000	0.263414	-1.296620E-7
1091.000000	0.265186	-1.290779E-7
1092.000000	0.268883	-1.293277E-7
1093.000000	0.271025	-1.288947E-7
1094.000000	0.273023	-1.281639E-7
1095.000000	0.278179	-1.279596E-7
1096.000000	0.280860	-1.282777E-7
1097.000000	0.281090	-1.291824E-7
1098.000000	0.282081	-1.289575E-7
1099.000000	0.276817	-1.296134E-7
1100.000000	0.269709	-1.294983E-7
