Voltage (V)	Current (A)	Current Density (A/m^2)	 Dividing Wavelength (nm) = 590  Light Power Density (W/m^2) = 1094.384842  Total Light Power Density (W/m^2) = 1094.384842	
-0.199914	-0.000571	-71.314937
-0.189834	-0.000563	-70.356563
-0.179784	-0.000562	-70.272750
-0.169673	-0.000563	-70.436213
-0.159558	-0.000557	-69.588688
-0.149512	-0.000562	-70.214700
-0.139402	-0.000559	-69.890987
-0.129330	-0.000560	-70.007225
-0.119270	-0.000556	-69.550787
-0.109164	-0.000557	-69.627688
-0.099052	-0.000554	-69.220588
-0.089011	-0.000558	-69.744075
-0.078900	-0.000555	-69.348075
-0.068824	-0.000554	-69.243713
-0.058708	-0.000553	-69.072838
-0.048655	-0.000553	-69.100738
-0.038551	-0.000548	-68.437863
-0.028444	-0.000553	-69.112050
-0.018394	-0.000548	-68.450338
-0.008312	-0.000548	-68.524500
0.001773	-0.000546	-68.223862
0.011822	-0.000545	-68.129913
0.021898	-0.000542	-67.711812
0.032012	-0.000542	-67.743925
0.042055	-0.000544	-68.006413
0.052175	-0.000545	-68.074425
0.062251	-0.000537	-67.177800
0.072327	-0.000542	-67.691613
0.082407	-0.000538	-67.302712
0.092518	-0.000537	-67.094938
0.102571	-0.000532	-66.511888
0.112681	-0.000532	-66.482412
0.122758	-0.000535	-66.911712
0.132804	-0.000531	-66.321850
0.142915	-0.000524	-65.468913
0.153027	-0.000527	-65.832475
0.163111	-0.000527	-65.899975
0.173155	-0.000523	-65.372950
0.183272	-0.000523	-65.399613
0.193381	-0.000524	-65.454262
0.203431	-0.000520	-64.947550
0.213509	-0.000518	-64.740688
0.223623	-0.000517	-64.638587
0.233669	-0.000516	-64.469313
0.243777	-0.000513	-64.163550
0.253853	-0.000512	-63.990150
0.263936	-0.000507	-63.389525
0.274012	-0.000506	-63.279387
0.284130	-0.000502	-62.803450
0.294178	-0.000504	-62.996350
0.304283	-0.000499	-62.411088
0.314364	-0.000497	-62.091788
0.324418	-0.000496	-61.980925
0.334527	-0.000490	-61.197125
0.344642	-0.000488	-60.980513
0.354685	-0.000485	-60.672888
0.364761	-0.000480	-60.013062
0.374873	-0.000477	-59.600262
0.384920	-0.000472	-59.038338
0.395034	-0.000471	-58.926213
0.405113	-0.000460	-57.544663
0.415222	-0.000457	-57.176400
0.425265	-0.000455	-56.830500
0.435385	-0.000447	-55.902975
0.445459	-0.000441	-55.134650
0.455541	-0.000428	-53.526888
0.465619	-0.000422	-52.803213
0.475733	-0.000413	-51.685900
0.485774	-0.000406	-50.784738
0.495895	-0.000394	-49.266038
0.505974	-0.000382	-47.774275
0.516018	-0.000367	-45.907363
0.526131	-0.000355	-44.394775
0.536238	-0.000340	-42.551025
0.546288	-0.000321	-40.161400
0.556365	-0.000307	-38.312538
0.566480	-0.000290	-36.226325
0.576518	-0.000269	-33.624975
0.586631	-0.000249	-31.078225
0.596712	-0.000225	-28.151400
0.606800	-0.000202	-25.244463
0.616880	-0.000174	-21.720038
0.626992	-0.000149	-18.616838
0.637029	-0.000123	-15.377588
0.647158	-9.168890E-5	-11.461113
0.657233	-6.067583E-5	-7.584479
0.667336	-2.559770E-5	-3.199713
0.677367	1.019019E-5	1.273774
0.687468	5.027273E-5	6.284091
0.697529	9.145305E-5	11.431631
0.707599	0.000134	16.801288
0.717715	0.000184	23.012688
0.727828	0.000237	29.602513
0.737874	0.000296	37.046075
0.747950	0.000361	45.144075
0.758070	0.000434	54.271625
0.768113	0.000515	64.357737
0.778226	0.000606	75.769963
0.788340	0.000708	88.492338
0.798381	0.000822	102.701338
0.808447	0.000947	118.437150
0.818599	0.001088	136.037750
0.828653	0.001243	155.315250
0.838768	0.001412	176.519625
0.848845	0.001597	199.653125
0.858887	0.001794	224.244250
0.868998	0.002007	250.839125
0.879118	0.002235	279.400875
0.889204	0.002475	309.337750
0.899242	0.002724	340.557000
0.909362	0.002990	373.773500
0.919466	0.003266	408.208250
0.929511	0.003549	443.663250
0.939629	0.003846	480.693000
0.949700	0.004149	518.567625
0.959749	0.004460	557.535750
0.969854	0.004785	598.125125
0.979969	0.005116	639.478875
0.990008	0.005448	681.030000
1.000096	0.005790	723.758125
