Wavelength (nm)	EQE (%)	Current (A)	Dark Current (A) -> 	-19.833519320E-9	
400.000000	7.260834	-1.535742E-7
403.000000	7.851165	-3.774108E-7
406.000000	7.512076	-5.868483E-7
409.000000	7.957642	-8.751405E-7
412.000000	8.079501	-1.361059E-6
415.000000	7.523523	-6.052374E-7
418.000000	8.593340	-5.994550E-7
421.000000	8.157333	-6.690481E-7
424.000000	8.239864	-6.110155E-7
427.000000	8.353993	-8.095247E-7
430.000000	8.328171	-1.287456E-6
433.000000	7.999203	-1.158855E-6
436.000000	7.991859	-1.147802E-6
439.000000	7.881333	-1.241792E-6
442.000000	7.878932	-1.303606E-6
445.000000	7.643830	-1.436943E-6
448.000000	7.510553	-1.602882E-6
451.000000	6.947224	-1.306434E-6
454.000000	7.428902	-1.286039E-6
457.000000	7.188591	-1.389341E-6
460.000000	7.535822	-1.070946E-6
463.000000	7.125227	-1.741057E-6
466.000000	7.710199	-1.483849E-6
469.000000	7.613860	-1.348413E-6
472.000000	7.627578	-1.249881E-6
475.000000	7.283961	-1.132057E-6
478.000000	7.742633	-1.544694E-6
481.000000	8.097491	-1.345205E-6
484.000000	7.977298	-1.278025E-6
487.000000	7.980576	-1.765851E-6
490.000000	8.266563	-1.505448E-6
493.000000	8.026451	-1.486194E-6
496.000000	8.058179	-1.795160E-6
499.000000	8.368099	-1.857915E-6
502.000000	8.550475	-1.724600E-6
505.000000	8.460376	-2.078054E-6
508.000000	8.525826	-2.702703E-6
511.000000	8.531329	-3.109139E-6
514.000000	8.513537	-1.988427E-6
517.000000	8.684956	-1.998033E-6
520.000000	8.800577	-3.484357E-6
523.000000	8.488982	-3.061856E-6
526.000000	8.683042	-1.858011E-6
529.000000	8.980404	-2.543728E-6
532.000000	8.493514	-2.614224E-6
535.000000	8.298193	-1.189064E-6
538.000000	9.100633	-2.278352E-6
541.000000	8.909694	-2.992448E-6
544.000000	8.624724	-1.313666E-6
547.000000	8.956159	-2.537189E-6
550.000000	8.861259	-2.271932E-6
553.000000	8.999353	-1.665936E-6
556.000000	9.044914	-2.271354E-6
559.000000	8.956298	-1.558458E-6
562.000000	8.967804	-1.999120E-6
565.000000	8.993273	-1.878140E-6
568.000000	8.833108	-1.820320E-6
571.000000	8.652118	-2.118844E-6
574.000000	8.727043	-1.975056E-6
577.000000	8.573331	-2.887754E-6
580.000000	8.395012	-2.009582E-6
583.000000	8.449027	-2.145123E-6
586.000000	8.414548	-2.773274E-6
589.000000	8.338428	-1.894325E-6
592.000000	7.966728	-1.041227E-6
595.000000	7.630706	-1.192359E-6
598.000000	7.806380	-9.685541E-7
601.000000	7.843320	-1.329998E-6
604.000000	7.827361	-1.374175E-6
607.000000	8.158069	-1.535397E-6
610.000000	8.131397	-1.561348E-6
613.000000	8.388942	-2.743686E-6
616.000000	8.053913	-3.341397E-6
619.000000	8.157072	-1.943064E-6
622.000000	8.992284	-4.255010E-6
625.000000	7.758736	-4.409161E-6
628.000000	8.220828	-2.424159E-6
631.000000	8.640860	-3.078418E-6
634.000000	8.536341	-3.716667E-6
637.000000	8.285966	-4.626597E-6
640.000000	8.063131	-4.443424E-6
643.000000	8.244966	-4.319646E-6
646.000000	8.204271	-5.125481E-6
649.000000	8.165368	-4.948222E-6
652.000000	8.075243	-6.123387E-6
655.000000	7.944136	-5.539099E-6
658.000000	7.976729	-6.020728E-6
661.000000	7.739280	-7.001518E-6
664.000000	7.724016	-6.177334E-6
667.000000	7.803017	-7.040775E-6
670.000000	7.759343	-7.022683E-6
673.000000	7.873160	-7.445712E-6
676.000000	7.935018	-7.939318E-6
679.000000	8.092416	-8.048319E-6
682.000000	8.218666	-8.320505E-6
685.000000	8.384510	-8.990768E-6
688.000000	8.529821	-9.085000E-6
691.000000	8.810332	-9.487427E-6
694.000000	8.881860	-9.207569E-6
697.000000	9.157102	-9.274941E-6
700.000000	9.300790	-1.036674E-5
703.000000	9.147041	-1.035995E-5
706.000000	8.976653	-1.048003E-5
709.000000	8.979308	-1.013368E-5
712.000000	8.698369	-1.118934E-5
715.000000	8.629257	-9.641295E-6
718.000000	8.349826	-8.838413E-6
721.000000	7.986292	-1.047599E-5
724.000000	7.616804	-7.797382E-6
727.000000	7.303162	-8.431691E-6
730.000000	6.765147	-6.904635E-6
733.000000	6.523665	-6.486695E-6
736.000000	5.990162	-6.024709E-6
739.000000	5.552022	-4.664058E-6
742.000000	5.154264	-4.904881E-6
745.000000	4.605575	-3.570629E-6
748.000000	4.295680	-3.523913E-6
751.000000	3.798256	-3.000274E-6
754.000000	3.426457	-2.359150E-6
757.000000	3.056252	-2.400703E-6
760.000000	2.648872	-1.688151E-6
763.000000	2.373645	-1.653335E-6
766.000000	2.046079	-1.296748E-6
769.000000	1.793697	-1.021129E-6
772.000000	1.529239	-9.647424E-7
775.000000	1.290992	-6.943443E-7
778.000000	1.121000	-6.633003E-7
781.000000	0.929807	-5.217909E-7
784.000000	0.784164	-4.149438E-7
787.000000	0.647253	-3.727756E-7
790.000000	0.521616	-2.733627E-7
793.000000	0.428865	-2.519264E-7
796.000000	0.339272	-1.890072E-7
799.000000	0.275452	-1.539992E-7
802.000000	0.217006	-1.291951E-7
805.000000	0.170509	-9.421129E-8
808.000000	0.136293	-8.309965E-8
811.000000	0.108295	-6.004198E-8
814.000000	0.087150	-5.129874E-8
817.000000	0.069250	-4.075493E-8
820.000000	0.056512	-3.246100E-8
823.000000	0.046273	-2.964202E-8
826.000000	0.037828	-2.181789E-8
829.000000	0.031624	-2.077526E-8
832.000000	0.026343	-1.639836E-8
835.000000	0.022562	-1.525273E-8
838.000000	0.019487	-1.332421E-8
841.000000	0.016986	-1.088685E-8
844.000000	0.014558	-1.019024E-8
847.000000	0.012610	-8.275455E-9
850.000000	0.011088	-7.917136E-9
853.000000	0.009822	-6.552373E-9
856.000000	0.008669	-5.827879E-9
859.000000	0.007685	-5.204409E-9
862.000000	0.007006	-4.335794E-9
865.000000	0.006272	-3.887349E-9
868.000000	0.005751	-3.317412E-9
871.000000	0.005258	-2.960777E-9
874.000000	0.004962	-2.571969E-9
877.000000	0.004575	-2.253859E-9
880.000000	0.004282	-2.075493E-9
883.000000	0.004023	-1.826999E-9
886.000000	0.003792	-1.699115E-9
889.000000	0.003592	-1.545385E-9
892.000000	0.003483	-1.445528E-9
895.000000	0.003326	-1.328185E-9
898.000000	0.003217	-1.275206E-9
901.000000	0.003095	-1.191730E-9
904.000000	0.002979	-1.196652E-9
907.000000	0.002897	-1.139913E-9
910.000000	0.002801	-1.084552E-9
913.000000	0.002672	-1.085309E-9
916.000000	0.002652	-1.019478E-9
919.000000	0.002539	-1.012346E-9
922.000000	0.002373	-9.515291E-10
925.000000	0.002437	-9.298730E-10
928.000000	0.002274	-9.034484E-10
931.000000	0.002459	-9.024042E-10
934.000000	0.002242	-8.720904E-10
937.000000	0.002283	-8.642235E-10
940.000000	0.002391	-8.411721E-10
943.000000	0.002342	-8.383569E-10
946.000000	0.002413	-8.156383E-10
949.000000	0.002239	-7.979770E-10
952.000000	0.002375	-8.029278E-10
955.000000	0.002458	-7.860516E-10
958.000000	0.002449	-7.589291E-10
961.000000	0.002536	-7.541545E-10
964.000000	0.002584	-7.661557E-10
967.000000	0.002727	-7.689361E-10
970.000000	0.002726	-7.566239E-10
973.000000	0.002800	-7.440245E-10
976.000000	0.002871	-7.328207E-10
979.000000	0.003161	-7.451390E-10
982.000000	0.003280	-7.114814E-10
985.000000	0.003438	-7.295303E-10
988.000000	0.003596	-7.461060E-10
991.000000	0.003492	-7.096042E-10
994.000000	0.003872	-7.333433E-10
997.000000	0.003873	-7.099500E-10
1000.000000	0.003869	-7.126893E-10
1003.000000	0.003920	-7.168597E-10
1006.000000	0.004045	-7.190826E-10
1009.000000	0.004129	-7.053515E-10
1012.000000	0.004152	-7.235468E-10
1015.000000	0.004054	-7.181386E-10
1018.000000	0.003983	-7.066293E-10
1021.000000	0.003946	-7.167723E-10
1024.000000	0.003832	-7.205613E-10
1027.000000	0.003409	-7.008823E-10
1030.000000	0.003123	-6.918666E-10
1033.000000	0.003103	-7.181863E-10
1036.000000	0.002796	-7.202622E-10
1039.000000	0.002371	-6.925349E-10
1042.000000	0.002689	-7.031872E-10
1045.000000	0.003290	-7.183030E-10
1048.000000	0.003384	-7.210015E-10
1051.000000	0.003271	-7.122672E-10
1054.000000	0.002822	-6.996388E-10
1057.000000	0.002528	-7.066596E-10
1060.000000	0.002215	-7.005825E-10
1063.000000	0.001804	-6.929340E-10
1066.000000	0.001413	-7.070474E-10
1069.000000	0.000694	-7.411680E-10
1072.000000	0.000331	-7.223617E-10
1075.000000	0.001082	-7.016510E-10
1078.000000	0.001556	-7.041908E-10
1081.000000	0.001916	-7.060618E-10
1084.000000	0.002103	-7.236590E-10
1087.000000	0.002341	-7.311904E-10
1090.000000	0.002263	-6.889219E-10
1093.000000	0.002378	-6.934149E-10
1096.000000	0.002500	-7.193643E-10
1099.000000	0.002263	-7.007817E-10
